Sample 4,,
Wavelength (nm),Intensity (a.u.),
220,2.360028744,
220.9299927,2.474191666,
222.0299988,1.600802779,
222.9600067,1.839164019,
224.0599976,1.537047505,
225,1.564641476,
225.9299927,1.531366587,
227.0299988,1.381430387,
227.9600067,1.267447472,
229.0599976,1.159373283,
230,1.075201035,
230.9299927,1.135033607,
232.0299988,1.070324063,
232.9600067,1.171588063,
234.0599976,1.196774244,
235,1.014033675,
235.9299927,1.037548184,
237.0299988,1.193543434,
237.9600067,0.9937787056,
239.0599976,1.061749816,
240,1.071846724,
240.9299927,1.097539425,
242.0299988,1.017975569,
242.9600067,1.085168839,
244.0599976,1.165755391,
245,1.515300274,
245.9299927,1.776165128,
247.0299988,2.195097208,
247.9600067,2.483208418,
249.0599976,2.686246634,
250,2.574077129,
250.9299927,2.357999086,
252.0299988,1.826240063,
252.9600067,1.394874454,
254.0599976,1.208781958,
255,1.258908749,
255.9299927,1.259210229,
257.0299988,1.418592691,
257.9599915,1.454267025,
259.0599976,1.419954062,
260,1.370364547,
261.0700073,1.328647137,
262,1.283732891,
263.0700073,1.948191404,
264,4.185028553,
265.0700073,9.52986908,
266,14.54237175,
267.0700073,19.49584961,
268,21.13599396,
269.0700073,19.48056793,
270,15.24503231,
270.9299927,10.83990765,
272.0299988,5.779747486,
272.9599915,2.926020861,
274.0599976,1.442649245,
275,0.8211457729,
275.9299927,0.6282773614,
277.0299988,0.6402491927,
277.9599915,0.6566166878,
279.0599976,0.6054334044,
280,0.616458416,
280.9299927,0.5810818076,
282.0299988,0.5702031851,
282.9599915,0.5789120793,
284.0599976,0.5610139966,
285,0.5404410362,
285.9299927,0.5656903982,
287.0299988,0.5605352521,
287.9599915,0.5345106125,
289.0599976,0.5349092484,
290,0.5716889501,
291.0700073,0.5367391109,
292,0.5391699672,
293.0700073,0.617790401,
294,0.5162968636,
295.0700073,0.5137252212,
296,0.5325530767,
297.0700073,0.5077729821,
298,0.5451006293,
299.0700073,0.4818417132,
300,0.4992735982,
300.9299927,0.5629636645,
302.0299988,0.5761114359,
302.9599915,0.5309937,
304.0599976,0.6200370789,
305,0.5770192742,
305.9299927,0.6399117708,
307.0299988,0.6891161203,
307.9599915,0.6605857611,
309.0599976,0.6344048977,
310,0.6653845906,
311.0700073,0.6977083683,
312,0.6940713525,
313.0700073,0.749242723,
314,0.7089821696,
315.0700073,0.7528932095,
316,0.7439647913,
317.0700073,0.8162533641,
318,0.788054347,
319.0700073,0.7631158233,
320,0.7264228463,
321.0700073,0.7028408051,
322,0.7448667884,
323.0700073,0.7683076859,
324,0.6859488487,
325.0700073,0.7030673623,
326,0.6871166825,
327.0700073,0.6801613569,
328,0.659971118,
329.0700073,0.7108131051,
330,0.6440481544,
330.9299927,0.6694238782,
332.0299988,0.5982093811,
332.9599915,0.5974062681,
334.0599976,0.6544523835,
335,0.6799169779,
335.9299927,0.6294695735,
337.0299988,0.6909987926,
337.9599915,0.633481741,
339.0599976,0.6327197552,
340,0.6128785014,
341.0700073,0.5871095061,
342,0.588993907,
343.0700073,0.6232261658,
344,0.6877220273,
345.0700073,0.5860897303,
346,0.5432819724,
347.0700073,0.5535102487,
348,0.6255677938,
349.0700073,0.5949907303,
350,0.6776612401,
351.0700073,0.6066102386,
352,0.6592823267,
353.0700073,0.6543800235,
354,0.6509894729,
355.0700073,0.6863248348,
356,0.6749205589,
357.0700073,0.6848076582,
358,0.6267212033,
359.0700073,0.6872982383,
360,0.5893108845,
361.0700073,0.5884667039,
362,0.5288143754,
363.0700073,0.541674912,
364,0.5482206345,
365.0700073,0.4680763185,
366,0.4904714823,
367.0700073,0.3714535534,
368,0.4229768813,
369.0700073,0.4087501764,
370,0.3433862925,
371.0599976,0.3520303071,
371.9599915,0.3967423141,
373.0299988,0.392228812,
373.9299927,0.3287551701,
375,0.2967403531,
376.0599976,0.3196454346,
376.9599915,0.2898316085,
378.0299988,0.2594720721,
378.9299927,0.2716242075,
380,0.2684981525,
381.0700073,0.2513475418,
382,0.2954284847,
383.0700073,0.2270575017,
384,0.2827709615,
385.0700073,0.2310722917,
386,0.2597527504,
387.0700073,0.2440472096,
388,0.2444322407,
389.0700073,0.2695751488,
390,0.2008582056,
391.0700073,0.2345775366,
392,0.2476819158,
393.0700073,0.2131003886,
394,0.2363151461,
395.0700073,0.2205655873,
396,0.2469086349,
397.0700073,0.2072767317,
398,0.2160728723,
399.0700073,0.2214228809,
400,0.2010649294,
401.0599976,0.2207072377,
401.9599915,0.2409938425,
403.0299988,0.2279094309,
403.9299927,0.1980514377,
405,0.2132046372,
406.0599976,0.2039279193,
406.9599915,0.1942504495,
408.0299988,0.195172891,
408.9299927,0.2220280021,
410,0.2223636806,
411.0700073,0.1816830486,
412,0.1972474754,
413.0700073,0.2210691869,
414,0.1931944191,
415.0700073,0.2014282942,
416,0.1890498996,
417.0700073,0.1866005063,
418,0.192858547,
419.0700073,0.2069271654,
420,0.2030118555,
421.0599976,0.207624495,
421.9599915,0.1912148446,
423.0299988,0.203779906,
423.9299927,0.1931087673,
425,0.186864689,
426.0599976,0.2260522693,
426.9599915,0.173908025,
428.0299988,0.2070954442,
428.9299927,0.1914447397,
430,0.198049292,
431.0599976,0.2025080025,
431.9599915,0.1850974858,
433.0299988,0.183532238,
433.9299927,0.2106554508,
435,0.1797274202,
436.0599976,0.1988279819,
436.9599915,0.1791586876,
438.0299988,0.1863597333,
438.9299927,0.1855536103,
440,0.1809559017,
441.0599976,0.18595016,
441.9599915,0.1774535924,
443.0299988,0.1872229725,
443.9299927,0.1820592135,
445,0.1746665984,
446.0599976,0.1961440593,
446.9599915,0.1684008241,
448.0299988,0.1816933751,
448.9299927,0.1813224256,
450,0.1695360839,
451.0599976,0.1885155588,
451.9599915,0.1663567871,
453.0299988,0.2208987027,
453.9299927,0.1971435249,
455,0.197553426,
456.0599976,0.2251074314,
456.9599915,0.2039338946,
458.0299988,0.2202161998,
458.9299927,0.2225626856,
460,0.2075991631,
461.0599976,0.2243433595,
461.9599915,0.2618731558,
463.0299988,0.3317143023,
463.9299927,0.4034348726,
465,0.4331315756,
466.0599976,0.4110086858,
466.9599915,0.389310956,
468.0299988,0.3958884776,
468.9299927,0.320235461,
470,0.2576102316,
471.0400085,0.242696926,
471.9400024,0.2711440325,
472.980011,0.2336603552,
474.019989,0.1785763353,
475.0700073,0.2207918018,
475.9700012,0.2180790603,
477.0100098,0.1902341396,
478.0499878,0.1732166559,
478.9500122,0.2075664103,
480,0.2071885914,
481.0599976,0.211048767,
481.9599915,0.1938995421,
483.0299988,0.1842661202,
483.9299927,0.1500058919,
485,0.1922269911,
486.0599976,0.1684429944,
486.9599915,0.1675368398,
488.0299988,0.1610601693,
488.9299927,0.13386181,
490,0.1599579602,
491.0400085,0.1701409817,
491.9400024,0.1394068897,
492.980011,0.1615291387,
494.019989,0.1638686061,
495.0700073,0.1447389722,
495.9700012,0.1658940911,
497.0100098,0.1711205542,
498.0499878,0.1696429253,
498.9500122,0.1630176753,
500,0.1573474556,
501.0599976,0.1832183599,
501.9599915,0.1291979253,
503.0299988,0.1381223947,
503.9299927,0.1579197794,
505,0.1129562929,
506.0599976,0.1469291747,
506.9599915,0.09268318117,
508.0299988,0.093610771,
508.9299927,0.1294351071,
510,0.04772595316,
511.0400085,0.07225804776,
511.9400024,0.1262684166,
512.9799805,0.0701956898,
514.0200195,0.0696664378,
515.0700073,0.075946711,
515.9699707,0.07849474251,
517.0100098,0.04571612552,
518.0499878,0.06960854679,
518.9500122,0.09533695877,
520,0.06538618356,
521.039978,0.09468308091,
521.9400024,0.04844599962,
522.9799805,0.080631271,
524.0200195,0.04420952499,
525.0700073,0.07672487199,
525.9699707,0.0718106553,
527.0100098,0.08767206222,
528.0499878,0.07569243759,
528.9500122,0.06450159848,
530,0.07772414386,

Sample 4,
Sample 4
Collection Time: 3/08/2023 1:21:17 PM
Operator Name  :
Scan Software Version: 1.2(147)
Parameter List :
Instrument                        Cary Eclipse
Instrument Serial Number          test
Data mode                         Fluorescence
Scan mode                         Excitation
X Mode                            Wavelength (nm)
Start (nm)                        220.00
Stop (nm)                         530.00
Em. Wavelength (nm)               540.00
Ex. Slit (nm)                     5
Em. Slit (nm)                     5
Scan rate (nm/min)                120.00
Data interval (nm)                1.0000
Averaging Time (s)                0.5000
Excitation filter                 Auto
Emission filter                   Open
PMT voltage (V)                   Medium
Corrected spectra                 OFF
Method Log     :
Method Name    : Default
Date/Time stamp: 3/08/2023 1:01:22 PM
Method Modifications:
Overlayed Graphs Changed: 3/08/2023 1:01:46 PM, Old:OFF, New:ON
User Delta Increment Changed: 3/08/2023 1:01:46 PM, Old:  10.00, New:   0.15
Scan Control Changed: 3/08/2023 1:01:46 PM, Old:Medium, New:Slow
Ave. time (s): Changed: 3/08/2023 1:01:46 PM, Old:0.10000, New:0.50000
Excitation Wavelength Changed: 3/08/2023 1:01:46 PM, Old: 350.00, New: 450.00
Emission Wavelength Changed: 3/08/2023 1:01:46 PM, Old: 400.00, New: 460.00
Stop Wavelength Changed: 3/08/2023 1:01:46 PM, Old: 600.00, New: 700.00
Scan mode: Changed: 3/08/2023 1:18:11 PM, Old:Emission, New:Excitation
User Delta Stop Changed: 3/08/2023 1:18:11 PM, Old: 450.00, New: 540.00
Excitation Wavelength Changed: 3/08/2023 1:18:11 PM, Old: 450.00, New: 220.00
Emission Wavelength Changed: 3/08/2023 1:18:11 PM, Old: 460.00, New: 540.00
Stop Wavelength Changed: 3/08/2023 1:18:11 PM, Old: 700.00, New: 530.00
End Method Modifications

