Sample 4,,
Wavelength (nm),Intensity (a.u.),
220,0.06202319637,
220.9299927,-0.5279977918,
222.0299988,0.3958828151,
222.9600067,0.2358258814,
224.0599976,0.2730996907,
225,-0.02315779775,
225.9299927,0.2512810826,
227.0299988,-0.013332,
227.9600067,0.01059434284,
229.0599976,0.009573042393,
230,-0.009662302211,
230.9299927,0.004987183027,
232.0299988,0.07353065908,
232.9600067,0.1509433985,
234.0599976,0.01269252971,
235,0.03139875084,
235.9299927,0.124168843,
237.0299988,0.139914766,
237.9600067,0.1411724389,
239.0599976,0.05514058471,
240,-0.01124117523,
240.9299927,0.04619623348,
242.0299988,0.04991045222,
242.9600067,0.02611259185,
244.0599976,0.01196229458,
245,0.05814356729,
245.9299927,0.06875097007,
247.0299988,0.02465908788,
247.9600067,0.02780249156,
249.0599976,0.002331833821,
250,0.02023958601,
250.9299927,0.01689812355,
252.0299988,0.03103903122,
252.9600067,0.03069221228,
254.0599976,0.06865562499,
255,0.02885595709,
255.9299927,0.1065772623,
257.0299988,0.1064117998,
257.9599915,0.08388094604,
259.0599976,0.1167940795,
260,0.1345554292,
261.0700073,0.1732759625,
262,0.2366366535,
263.0700073,0.2436287701,
264,0.3418290317,
265.0700073,0.3488579094,
266,0.4154897928,
267.0700073,0.4114397168,
268,0.4165915847,
269.0700073,0.4310461879,
270,0.4446113706,
270.9299927,0.462236315,
272.0299988,0.4921908975,
272.9599915,0.4674809575,
274.0599976,0.4551839828,
275,0.5344002843,
275.9299927,0.5418106318,
277.0299988,0.5217736959,
277.9599915,0.6124644279,
279.0599976,0.6139248013,
280,0.5892646313,
280.9299927,0.6042819023,
282.0299988,0.6031746268,
282.9599915,0.6289352775,
284.0599976,0.6385890245,
285,0.6184966564,
285.9299927,0.6364050508,
287.0299988,0.6350765228,
287.9599915,0.6498582959,
289.0599976,0.6613057852,
290,0.664072454,
291.0700073,0.7067658901,
292,0.6925834417,
293.0700073,0.7427589297,
294,0.6941325068,
295.0700073,0.7255359292,
296,0.7567721605,
297.0700073,0.7808356881,
298,0.7132572532,
299.0700073,0.7583081126,
300,0.7930809855,
300.9299927,0.7462092042,
302.0299988,0.8412327766,
302.9599915,0.9184533358,
304.0599976,0.8570552468,
305,1.004059672,
305.9299927,1.006909251,
307.0299988,0.9706404209,
307.9599915,0.9996318221,
309.0599976,1.081391454,
310,1.061648011,
311.0700073,1.018496156,
312,1.070324898,
313.0700073,1.070572376,
314,1.121040106,
315.0700073,1.195747018,
316,1.157752156,
317.0700073,1.148219466,
318,1.331659317,
319.0700073,1.326727748,
320,1.364300013,
321.0700073,1.417279601,
322,1.314272404,
323.0700073,1.341850042,
324,1.427698493,
325.0700073,1.468462944,
326,1.441952467,
327.0700073,1.508107662,
328,1.55888772,
329.0700073,1.555628181,
330,1.613744974,
330.9299927,1.647849798,
332.0299988,1.751913548,
332.9599915,1.693471909,
334.0599976,1.818082213,
335,1.778746843,
335.9299927,1.800811529,
337.0299988,1.882682323,
337.9599915,1.844981313,
339.0599976,1.75879395,
340,1.938434005,
341.0700073,2.020949602,
342,1.956043959,
343.0700073,2.024486065,
344,2.066979408,
345.0700073,2.002749681,
346,1.958767176,
347.0700073,1.944543839,
348,2.013031244,
349.0700073,2.064224243,
350,2.07662034,
351.0700073,2.063858747,
352,2.138250351,
353.0700073,2.126676559,
354,2.193176985,
355.0700073,2.104165077,
356,2.119853258,
357.0700073,2.186135292,
358,2.16899848,
359.0700073,2.220929384,
360,2.183644056,
361.0700073,2.145716667,
362,2.14585495,
363.0700073,2.163821697,
364,2.051328659,
365.0700073,2.124960423,
366,2.188717604,
367.0700073,2.178300858,
368,2.254780293,
369.0700073,2.190817833,
370,2.33413434,
371.0599976,2.238960266,
371.9599915,2.371512175,
373.0299988,2.298075676,
373.9299927,2.373503447,
375,2.330061197,
376.0599976,2.37634325,
376.9599915,2.360510349,
378.0299988,2.312284708,
378.9299927,2.349370003,
380,2.28147006,
381.0700073,2.412609577,
382,2.480600834,
383.0700073,2.490523815,
384,2.467246056,
385.0700073,2.559385538,
386,2.477700472,
387.0700073,2.508494377,
388,2.540532589,
389.0700073,2.553244352,
390,2.571324348,
391.0700073,2.579211712,
392,2.557214022,
393.0700073,2.503654242,
394,2.478126764,
395.0700073,2.535852194,
396,2.558217525,
397.0700073,2.54772687,
398,2.585871458,
399.0700073,2.664984941,
400,2.674033642,
401.0599976,2.654154539,
401.9599915,2.691454411,
403.0299988,2.675342083,
403.9299927,2.672165871,
405,2.705300093,
406.0599976,2.630705118,
406.9599915,2.694945097,
408.0299988,2.678437471,
408.9299927,2.663933992,
410,2.71312952,
411.0700073,2.650027275,
412,2.746430874,
413.0700073,2.734060049,
414,2.717926025,
415.0700073,2.797332525,
416,2.816869736,
417.0700073,2.825683117,
418,2.840246439,
419.0700073,2.819136381,
420,2.750283718,
421.0599976,2.76253581,
421.9599915,2.702871799,
423.0299988,2.691673279,
423.9299927,2.685738087,
425,2.65959239,
426.0599976,2.597525597,
426.9599915,2.58971262,
428.0299988,2.608157158,
428.9299927,2.645139933,
430,2.632820606,
431.0599976,2.61189127,
431.9599915,2.606692791,
433.0299988,2.575816154,
433.9299927,2.592675924,
435,2.518061876,
436.0599976,2.540321112,
436.9599915,2.524793863,
438.0299988,2.568048239,
438.9299927,2.498651505,
440,2.490747452,
441.0599976,2.407795906,
441.9599915,2.42676568,
443.0299988,2.43010354,
443.9299927,2.399878979,
445,2.364761353,
446.0599976,2.302294731,
446.9599915,2.305399656,
448.0299988,2.226700783,
448.9299927,2.200721025,
450,2.212500095,
451.0599976,2.166684151,
451.9599915,2.212488651,
453.0299988,2.201200962,
453.9299927,2.199585915,
455,2.252940178,
456.0599976,2.277087212,
456.9599915,2.261870384,
458.0299988,2.141232729,
458.9299927,2.114377975,
460,2.016944408,
461.0599976,1.940278053,
461.9599915,1.887282968,
463.0299988,1.832011342,
463.9299927,1.815891862,
465,1.84163177,
466.0599976,1.776786327,
466.9599915,1.737619519,
468.0299988,1.708848953,
468.9299927,1.72176218,
470,1.714193463,
471.0400085,1.614371419,
471.9400024,1.57173717,
472.980011,1.525400877,
474.019989,1.532831073,
475.0700073,1.468714356,
475.9700012,1.471120834,
477.0100098,1.430116296,
478.0499878,1.383113742,
478.9500122,1.36170423,
480,1.380378604,
481.0599976,1.331305861,
481.9599915,1.276113868,
483.0299988,1.243879795,
483.9299927,1.194509387,
485,1.15099299,
486.0599976,1.073963881,
486.9599915,1.050821543,
488.0299988,1.019272804,
488.9299927,1.026248813,
490,1.00488317,
491.0400085,0.9651052356,
491.9400024,0.957883954,
492.980011,0.9466991425,
494.019989,0.8937352896,
495.0700073,0.8669811487,
495.9700012,0.8294273019,
497.0100098,0.8170571327,
498.0499878,0.8313196301,
498.9500122,0.7434930801,
500,0.7969279289,
501.0599976,0.6946222186,
501.9599915,0.7448774576,
503.0299988,0.658041358,
503.9299927,0.5859819651,
505,0.6326392293,
506.0599976,0.5619980693,
506.9599915,0.6483678818,
508.0299988,0.6323815584,
508.9299927,0.6355037093,
510,0.5585740209,
511.0400085,0.5970882773,
511.9400024,0.5213794112,
512.9799805,0.440128535,
514.0200195,0.449123919,
515.0700073,0.4523710907,
515.9699707,0.3746621311,
517.0100098,0.3593080044,
518.0499878,0.3552882373,
518.9500122,0.3581834435,
520,0.3316087127,

Sample 4,
Sample 4
Collection Time: 10/08/2023 2:49:21 PM
Operator Name  :
Scan Software Version: 1.2(147)
Parameter List :
Instrument                        Cary Eclipse
Instrument Serial Number          test
Data mode                         Fluorescence
Scan mode                         Excitation
X Mode                            Wavelength (nm)
Start (nm)                        220.00
Stop (nm)                         520.00
Em. Wavelength (nm)               530.00
Ex. Slit (nm)                     5
Em. Slit (nm)                     5
Scan rate (nm/min)                120.00
Data interval (nm)                1.0000
Averaging Time (s)                0.5000
Excitation filter                 Auto
Emission filter                   Open
PMT voltage (V)                   Medium
Corrected spectra                 OFF
Method Log     :
Method Name    : Default
Date/Time stamp: 10/08/2023 1:46:39 PM
Method Modifications:
Overlayed Graphs Changed: 10/08/2023 1:59:01 PM, Old:OFF, New:ON
Scan Control Changed: 10/08/2023 1:59:01 PM, Old:Medium, New:Slow
Ave. time (s): Changed: 10/08/2023 1:59:01 PM, Old:0.10000, New:0.50000
Excitation Wavelength Changed: 10/08/2023 2:37:48 PM, Old: 350.00, New: 420.00
Emission Wavelength Changed: 10/08/2023 2:37:48 PM, Old: 400.00, New: 430.00
Stop Wavelength Changed: 10/08/2023 2:37:48 PM, Old: 600.00, New: 750.00
Scan mode: Changed: 10/08/2023 2:45:05 PM, Old:Emission, New:Excitation
User Delta Stop Changed: 10/08/2023 2:45:05 PM, Old: 450.00, New: 530.00
User Delta Increment Changed: 10/08/2023 2:45:05 PM, Old:  10.00, New:   0.15
Excitation Wavelength Changed: 10/08/2023 2:45:05 PM, Old: 420.00, New: 220.00
Emission Wavelength Changed: 10/08/2023 2:45:05 PM, Old: 430.00, New: 530.00
Stop Wavelength Changed: 10/08/2023 2:45:05 PM, Old: 750.00, New: 520.00
End Method Modifications

