Sample 3,,
Wavelength (nm),Intensity (a.u.),
220,6.236492634,
220.9299927,5.023834705,
222.0299988,4.203268528,
222.9600067,3.637221575,
224.0599976,2.654677153,
225,1.957810998,
225.9299927,1.853060246,
227.0299988,1.212035298,
227.9600067,1.13396883,
229.0599976,0.9563261271,
230,0.9423017502,
230.9299927,0.9200655222,
232.0299988,1.015506029,
232.9600067,1.244921565,
234.0599976,1.192285299,
235,1.16110301,
235.9299927,1.249481916,
237.0299988,1.305845141,
237.9600067,1.185947299,
239.0599976,0.8924927711,
240,0.7654612064,
240.9299927,0.6640729904,
242.0299988,0.6400572658,
242.9600067,0.5468012094,
244.0599976,0.5335187912,
245,0.5017365217,
245.9299927,0.4663559198,
247.0299988,0.4770908058,
247.9600067,0.5761159658,
249.0599976,0.5821232796,
250,0.67983675,
250.9299927,0.7688754797,
252.0299988,0.9516718984,
252.9600067,1.028893352,
254.0599976,1.246984005,
255,1.652447701,
255.9299927,1.986906886,
257.0299988,2.460030794,
257.9599915,2.93191433,
259.0599976,3.296859264,
260,3.860947132,
261.0700073,5.044959545,
262,6.672292709,
263.0700073,9.706338882,
264,12.95142078,
265.0700073,16.48663521,
266,19.45252609,
267.0700073,23.61955261,
268,27.67217827,
269.0700073,32.13413239,
270,35.8225441,
270.9299927,38.58446503,
272.0299988,41.8470726,
272.9599915,43.45918274,
274.0599976,44.7407608,
275,44.87861252,
275.9299927,43.86798859,
277.0299988,41.3333931,
277.9599915,38.28260422,
279.0599976,34.65145493,
280,31.29286385,
280.9299927,28.66567612,
282.0299988,25.95086288,
282.9599915,24.18288422,
284.0599976,22.88572311,
285,21.86578178,
285.9299927,21.45142174,
287.0299988,21.4370327,
287.9599915,21.51796722,
289.0599976,21.83886147,
290,22.36521912,
291.0700073,23.49626541,
292,24.37530899,
293.0700073,25.71971512,
294,26.78488922,
295.0700073,27.48259735,
296,28.1126709,
297.0700073,28.66082382,
298,29.44641685,
299.0700073,29.63989258,
300,30.42825508,
300.9299927,31.46258354,
302.0299988,32.50767136,
302.9599915,33.85267639,
304.0599976,35.76399612,
305,38.92057037,
305.9299927,42.8217659,
307.0299988,47.86078262,
307.9599915,51.56097794,
309.0599976,56.71531677,
310,60.57793808,
311.0700073,63.56824112,
312,65.27565765,
313.0700073,63.56008911,
314,60.5872879,
315.0700073,53.47193909,
316,46.02832794,
317.0700073,36.85427475,
318,31.46191025,
319.0700073,26.01063538,
320,21.4325943,
321.0700073,17.76232719,
322,15.56394482,
323.0700073,13.84738159,
324,12.76771641,
325.0700073,11.63632679,
326,10.79377651,
327.0700073,10.03546047,
328,9.77203083,
329.0700073,9.284368515,
330,9.026002884,
330.9299927,8.729708672,
332.0299988,8.346852303,
332.9599915,8.270486832,
334.0599976,8.10743618,
335,7.905744076,
335.9299927,7.948733807,
337.0299988,7.696878433,
337.9599915,7.688335896,
339.0599976,7.808935165,
340,7.889573574,
341.0700073,7.872640133,
342,8.049487114,
343.0700073,7.66695118,
344,7.900918007,
345.0700073,7.718644619,
346,7.77553463,
347.0700073,7.710697174,
348,7.752918243,
349.0700073,8.080233574,
350,8.254084587,
351.0700073,8.58458519,
352,8.750429153,
353.0700073,9.215273857,
354,9.457215309,
355.0700073,9.833969116,
356,10.24283886,
357.0700073,10.65518284,
358,11.04695702,
359.0700073,11.41308975,
360,11.75842667,
361.0700073,11.84532166,
362,12.00959396,
363.0700073,11.93941784,
364,12.25620937,
365.0700073,12.65049362,
366,13.11571693,
367.0700073,13.70616055,
368,14.30679703,
369.0700073,15.0568285,
370,16.41408539,
371.0599976,17.38882446,
371.9599915,18.39019966,
373.0299988,19.56905556,
373.9299927,20.64049721,
375,21.52491951,
376.0599976,22.32305908,
376.9599915,22.98551941,
378.0299988,24.01374245,
378.9299927,25.43340492,
380,26.42409515,
381.0700073,27.31116104,
382,28.03920746,
383.0700073,28.43869591,
384,28.86730385,
385.0700073,29.38173103,
386,30.11638069,
387.0700073,31.28494263,
388,31.94247246,
389.0700073,33.71195984,
390,35.22489548,
391.0700073,36.61404419,
392,37.55308533,
393.0700073,38.72371674,
394,39.89995193,
395.0700073,41.93932343,
396,43.9881897,
397.0700073,46.04130554,
398,48.13202286,
399.0700073,51.08441925,
400,54.2335701,
401.0599976,56.8920784,
401.9599915,59.17212296,
403.0299988,61.59758759,
403.9299927,63.21074677,
405,65.09152985,
406.0599976,67.95278168,
406.9599915,70.37181854,
408.0299988,73.34892273,
408.9299927,75.3156662,
410,78.21208191,
411.0700073,81.27046967,
412,83.79531097,
413.0700073,87.82854462,
414,90.89067841,
415.0700073,94.53967285,
416,97.76313782,
417.0700073,100.3879929,
418,102.7184067,
419.0700073,104.5385818,
420,106.18853,
421.0599976,107.8119812,
421.9599915,109.2999344,
423.0299988,111.3230972,
423.9299927,112.8886948,
425,115.9125366,
426.0599976,118.4355621,
426.9599915,122.0710526,
428.0299988,127.2529373,
428.9299927,133.1997833,
430,139.3730011,
431.0599976,144.9931641,
431.9599915,148.2540131,
433.0299988,152.0427399,
433.9299927,155.1269073,
435,160.6708221,
436.0599976,164.9178467,
436.9599915,169.4044647,
438.0299988,174.4645996,
438.9299927,176.5811768,
440,178.5140686,
441.0599976,178.6590118,
441.9599915,178.6766815,
443.0299988,178.684082,
443.9299927,178.7086792,
445,178.4044037,
446.0599976,174.3213806,
446.9599915,169.7079315,
448.0299988,165.204361,
448.9299927,161.8257599,
450,159.3096466,
451.0599976,158.2549133,
451.9599915,159.8328247,
453.0299988,161.2505493,
453.9299927,163.7608032,
455,169.7050323,
456.0599976,176.1196747,
456.9599915,182.1537628,
458.0299988,186.5310516,
458.9299927,187.6418457,
460,189.329895,
461.0599976,190.5336456,
461.9599915,193.7781677,
463.0299988,198.2811737,
463.9299927,205.1538239,
465,211.6951294,
466.0599976,215.2731476,
466.9599915,219.0744171,
468.0299988,220.4472961,
468.9299927,221.4752655,
470,221.4227295,
471.0400085,219.0881348,
471.9400024,214.602356,
472.980011,207.3423157,
474.019989,194.5697021,
475.0700073,179.6795654,
475.9700012,164.6504822,
477.0100098,144.3768768,
478.0499878,122.5121078,
478.9500122,102.8996277,
480,82.94514465,
481.0599976,64.69386292,
481.9599915,53.35916901,
483.0299988,42.92649078,
483.9299927,36.22846985,
485,29.62502098,
486.0599976,22.86316109,
486.9599915,18.3374157,
488.0299988,14.28262424,
488.9299927,12.08891773,
490,9.790787697,
491.0400085,7.73674202,
491.9400024,6.507811546,
492.980011,5.364903927,
494.019989,4.499454498,
495.0700073,3.931123257,
495.9700012,3.380094051,
497.0100098,3.02704668,
498.0499878,2.755228758,
498.9500122,2.574309826,
500,2.373989344,
501.0599976,2.27716589,
501.9599915,2.197392225,
503.0299988,2.073549509,
503.9299927,2.071725607,
505,1.909424901,
506.0599976,1.827643991,
506.9599915,1.707642436,
508.0299988,1.686481118,
508.9299927,1.58538413,
510,1.496075153,
511.0400085,1.363128304,
511.9400024,1.340117574,
512.9799805,1.291451693,
514.0200195,1.274389267,
515.0700073,1.187220931,
515.9699707,1.144349337,
517.0100098,1.088784218,
518.0499878,1.051826954,
518.9500122,1.013378382,
520,0.9784981608,

Sample 3,
Sample 3
Collection Time: 10/08/2023 2:45:10 PM
Operator Name  :
Scan Software Version: 1.2(147)
Parameter List :
Instrument                        Cary Eclipse
Instrument Serial Number          test
Data mode                         Fluorescence
Scan mode                         Excitation
X Mode                            Wavelength (nm)
Start (nm)                        220.00
Stop (nm)                         520.00
Em. Wavelength (nm)               530.00
Ex. Slit (nm)                     5
Em. Slit (nm)                     5
Scan rate (nm/min)                120.00
Data interval (nm)                1.0000
Averaging Time (s)                0.5000
Excitation filter                 Auto
Emission filter                   Open
PMT voltage (V)                   Medium
Corrected spectra                 OFF
Method Log     :
Method Name    : Default
Date/Time stamp: 10/08/2023 1:46:39 PM
Method Modifications:
Overlayed Graphs Changed: 10/08/2023 1:59:01 PM, Old:OFF, New:ON
Scan Control Changed: 10/08/2023 1:59:01 PM, Old:Medium, New:Slow
Ave. time (s): Changed: 10/08/2023 1:59:01 PM, Old:0.10000, New:0.50000
Excitation Wavelength Changed: 10/08/2023 2:37:48 PM, Old: 350.00, New: 420.00
Emission Wavelength Changed: 10/08/2023 2:37:48 PM, Old: 400.00, New: 430.00
Stop Wavelength Changed: 10/08/2023 2:37:48 PM, Old: 600.00, New: 750.00
Scan mode: Changed: 10/08/2023 2:45:05 PM, Old:Emission, New:Excitation
User Delta Stop Changed: 10/08/2023 2:45:05 PM, Old: 450.00, New: 530.00
User Delta Increment Changed: 10/08/2023 2:45:05 PM, Old:  10.00, New:   0.15
Excitation Wavelength Changed: 10/08/2023 2:45:05 PM, Old: 420.00, New: 220.00
Emission Wavelength Changed: 10/08/2023 2:45:05 PM, Old: 430.00, New: 530.00
Stop Wavelength Changed: 10/08/2023 2:45:05 PM, Old: 750.00, New: 520.00
End Method Modifications

