Sample 3,,
Wavelength (nm),Intensity (a.u.),
340,5.048707485,
341.0700073,4.012056351,
342,4.311526299,
343.0700073,5.099379063,
344,5.876806259,
345.0700073,7.022308826,
346,8.453633308,
347.0700073,9.844739914,
348,11.48826885,
349.0700073,12.73127079,
350,14.486063,
351.0599976,16.24117088,
351.9599915,17.40984917,
353.0299988,18.54733849,
353.9299927,19.00146484,
355,19.8245697,
356.0599976,20.02441788,
356.9599915,20.17811584,
358.0299988,19.97122765,
358.9299927,20.15891075,
360,20.35273933,
361.0700073,20.38755798,
362,20.85963631,
363.0700073,21.29497337,
364,21.31693649,
365.0700073,21.73297501,
366,22.37462044,
367.0700073,22.67357826,
368,23.6146183,
369.0700073,23.5049324,
370,23.60349274,
371.0599976,23.69628334,
371.9599915,23.06795692,
373.0299988,22.81452179,
373.9299927,22.15419197,
375,21.31926537,
376.0599976,20.65503693,
376.9599915,19.91219139,
378.0299988,19.43070221,
378.9299927,18.87853241,
380,18.29338837,
381.0700073,17.54385948,
382,17.30912971,
383.0700073,16.66851044,
384,16.34916306,
385.0700073,15.77198887,
386,15.347929,
387.0700073,15.03537941,
388,14.51294804,
389.0700073,14.03730583,
390,13.81436253,
391.0599976,13.15878201,
391.9599915,13.05379677,
393.0299988,12.46013355,
393.9299927,12.06197071,
395,11.44910145,
396.0599976,11.16989517,
396.9599915,10.79171467,
398.0299988,10.5097723,
398.9299927,9.949346542,
400,9.776603699,
401.0599976,9.209118843,
401.9599915,8.801371574,
403.0299988,8.679804802,
403.9299927,8.406280518,
405,8.165044785,
406.0599976,7.865776539,
406.9599915,7.610178471,
408.0299988,7.496495724,
408.9299927,7.499261379,
410,7.506608963,
411.0599976,7.395028114,
411.9599915,7.308245182,
413.0299988,7.47836256,
413.9299927,7.484831333,
415,7.845007896,
416.0599976,7.97066927,
416.9599915,8.558901787,
418.0299988,8.756067276,
418.9299927,9.35674572,
420,10.08237648,
421.0599976,10.64713383,
421.9599915,11.49097729,
423.0299988,12.43706036,
423.9299927,13.65045166,
425,14.95570946,
426.0599976,16.43205261,
426.9599915,17.75358009,
428.0299988,19.27513695,
428.9299927,21.07409096,
430,23.63342476,
431.0400085,26.11252594,
431.9400024,28.04821205,
432.980011,30.9054966,
434.019989,34.32588959,
435.0700073,37.86530304,
435.9700012,41.19459152,
437.0100098,45.32593155,
438.0499878,48.88008118,
438.9500122,52.4984169,
440,57.35532761,
441.0599976,62.55478287,
441.9599915,67.13853455,
443.0299988,72.89665222,
443.9299927,77.4972229,
445,84.41053772,
446.0599976,90.45949554,
446.9599915,96.24264526,
448.0299988,104.4519043,
448.9299927,110.169899,
450,116.3829498,
451.0599976,124.6127777,
451.9599915,131.2012329,
453.0299988,140.0156555,
453.9299927,146.9694824,
455,155.6440277,
456.0599976,164.7010803,
456.9599915,170.5228577,
458.0299988,180.904892,
458.9299927,187.3706055,
460,196.6958923,
461.0400085,203.4135437,
461.9400024,210.89534,
462.980011,221.2420807,
464.019989,228.497467,
465.0700073,237.6018219,
465.9700012,242.5737152,
467.0100098,250.6033173,
468.0499878,259.0461426,
468.9500122,264.172699,
470,269.6043091,
471.0400085,278.6755066,
471.9400024,283.0274658,
472.980011,289.6099243,
474.019989,295.3581848,
475.0700073,298.553833,
475.9700012,303.2240295,
477.0100098,308.5533447,
478.0499878,311.5039368,
478.9500122,315.5631104,
480,317.6491089,
481.0400085,320.1747437,
481.9400024,325.3441467,
482.980011,325.7272339,
484.019989,328.1634827,
485.0700073,328.4897766,
485.9700012,330.9719238,
487.0100098,334.0095825,
488.0499878,329.7228699,
488.9500122,332.4749146,
490,332.9244995,
491.0400085,333.1526489,
491.9400024,332.3119202,
492.980011,330.6261292,
494.019989,328.8199463,
495.0700073,327.5123596,
495.9700012,325.925354,
497.0100098,325.9964905,
498.0499878,324.8114319,
498.9500122,319.1724243,
500,317.1383057,
501.0400085,316.0692444,
501.9400024,313.025116,
502.980011,310.9042664,
504.019989,308.9091797,
505.0700073,305.1264343,
505.9700012,300.5301208,
507.0100098,298.5910645,
508.0499878,295.5281677,
508.9500122,291.4057007,
510,288.3665466,
511.0400085,285.4804077,
511.9400024,279.7188721,
512.9799805,276.3946533,
514.0200195,272.9501953,
515.0700073,268.495697,
515.9699707,265.520874,
517.0100098,262.5452576,
518.0499878,257.4364014,
518.9500122,253.0258942,
520,247.8178406,
521.0200195,244.5370026,
522.0499878,238.4238434,
522.9400024,233.1742096,
523.9699707,230.8578033,
525,225.6223755,
526.0200195,222.0466766,
527.0499878,215.9325562,
527.9400024,213.6161804,
528.9699707,208.5747833,
530,204.9143982,
531.039978,199.6351166,
531.9400024,195.7780304,
532.9799805,189.5246277,
534.0200195,186.4705658,
535.0700073,181.6499176,
535.9699707,180.3179779,
537.0100098,175.595108,
538.0499878,170.643158,
538.9500122,167.8430786,
540,162.8968353,
541.0200195,158.4028473,
542.0499878,155.4042511,
542.9400024,152.1930695,
543.9699707,148.1162567,
545,143.8737183,
546.0200195,139.9789581,
547.0499878,136.3752747,
547.9400024,134.3075409,
548.9699707,130.6213531,
550,127.3514786,
551.0200195,123.9198151,
552.0499878,120.7891312,
552.9400024,117.7496262,
553.9699707,114.6839905,
555,111.0921707,
556.0200195,108.0460739,
557.0499878,105.7473907,
557.9400024,103.443306,
558.9699707,99.51335907,
560,97.81064606,
561.0200195,94.41734314,
562.0499878,91.99974823,
562.9400024,89.70323944,
563.9699707,87.81375122,
565,84.51063538,
566.0200195,82.40929413,
567.0499878,79.25720215,
567.9400024,77.66684723,
568.9699707,75.64427948,
570,73.25978088,
571.0100098,71.1856842,
572.0200195,68.60048676,
573.039978,66.68697357,
574.0499878,64.27064514,
575.0700073,62.35915375,
575.9400024,61.50868988,
576.9500122,59.08807373,
577.9699707,57.21414566,
578.9799805,55.65266418,
580,53.98959732,
581.0200195,52.36927795,
582.0499878,50.70469666,
582.9400024,49.36283112,
583.9699707,47.90948105,
585,46.61589432,
586.0200195,44.68177414,
587.0499878,43.38412857,
587.9400024,42.20397949,
588.9699707,40.82759094,
590,39.53382492,
591.0100098,38.31731033,
592.0200195,37.16517639,
593.039978,36.01284027,
594.0499878,35.16108322,
595.0700073,33.62735367,
595.9400024,32.89921951,
596.9500122,31.87620926,
597.9699707,31.06254196,
598.9799805,30.00027275,
600,29.35612106,
601.0100098,28.44871521,
602.0200195,27.16596222,
603.039978,26.54946136,
604.0499878,25.75770569,
605.0700073,24.74367714,
605.9400024,24.03179932,
606.9500122,23.30976295,
607.9699707,22.38960457,
608.9799805,21.85672951,
610,21.03361893,
611.0100098,20.35090828,
612.0200195,19.78673935,
613.039978,18.98176765,
614.0499878,18.70281601,
615.0700073,17.76454926,
615.9400024,17.34355927,
616.9500122,16.77737617,
617.9699707,16.17431641,
618.9799805,15.65496445,
620,15.15167618,
621.0100098,14.52165508,
622.0200195,14.01131248,
623.039978,13.53466606,
624.0499878,13.31670856,
625.0700073,12.71138573,
625.9400024,12.32400417,
626.9500122,12.09551716,
627.9699707,11.48410892,
628.9799805,11.09933186,
630,10.79135513,
631,10.20264149,
632,9.978287697,
633,9.665287018,
634,9.246808052,
635,8.83404541,
636,8.596586227,
637,8.447714806,
638,8.117894173,
639,7.703527451,
640,7.490559578,
641.0100098,7.195658207,
642.0200195,7.044872284,
643.039978,6.872946739,
644.0499878,6.558913231,
645.0700073,6.418580532,
645.9400024,6.121150494,
646.9500122,5.864768982,
647.9699707,5.748815536,
648.9799805,5.744953156,
650,5.448824883,
651,5.475832462,
652,5.324192047,
653,5.394016743,
654,6.003166199,
655,6.641417503,
656,7.878325939,
657,9.410251617,
658,11.29779148,
659,13.21160316,
660,15.70202827,
661,17.55228424,
662,19.40135765,
663,20.05098915,
664,20.66859245,
665,20.59186554,
666,19.94467926,
667,17.93458557,
668,16.29839706,
669,13.57978439,
670,10.72663116,
670.9799805,8.058177948,
671.9699707,6.351210594,
672.9500122,4.762878418,
673.9400024,3.566639423,
675.0700073,2.876577854,
676.0499878,2.59429121,
677.039978,2.44522953,
678.0200195,2.299253702,
679.0100098,2.209276915,
680,2.315795898,
681,2.270957232,
682,2.299248934,
683,2.170620203,
684,2.108326435,
685,2.101409674,
686,2.202688456,
687,2.13673687,
688,2.294467926,
689,2.161913395,
690,2.176061153,
690.9799805,2.247440815,
691.9699707,2.226403952,
692.9500122,2.181317329,
693.9400024,2.395205259,
695.0700073,2.33669281,
696.0499878,2.397772312,
697.039978,2.423497438,
698.0200195,2.451841354,
699.0100098,2.584824085,
700,2.50783062,
700.9799805,2.645844221,
701.9699707,2.700367689,
702.9500122,2.681222677,
703.9400024,2.602113008,
705.0700073,2.578540564,
706.0499878,2.575130463,
707.039978,2.575233936,
708.0200195,2.66478467,
709.0100098,2.541024446,
710,2.48911643,
710.9799805,2.522389174,
711.9699707,2.569092512,
712.9500122,2.468452692,
713.9400024,2.502500772,
715.0700073,2.434276342,
716.0499878,2.32900691,
717.039978,2.30360651,
718.0200195,2.257740736,
719.0100098,2.334627867,
720,2.298121691,
720.9699707,2.20306468,
721.9400024,2.193859339,
723.0499878,2.205441952,
724.0200195,2.189641237,
725,2.195276022,
725.9699707,2.142379522,
726.9400024,2.137104034,
728.0499878,2.118943214,
729.0200195,2.146219969,
730,1.979709625,
730.9799805,2.131679773,
731.9699707,2.071772337,
732.9500122,2.045636177,
733.9400024,2.155274153,
735.0700073,2.019258976,
736.0499878,2.158879519,
737.039978,2.03159833,
738.0200195,2.082044125,
739.0100098,2.029329777,
740,2.053298235,
740.9500122,1.937464118,
742.0499878,1.95077157,
743.0100098,1.92175746,
743.9699707,1.884046435,
745.0599976,1.858151197,
746.0200195,1.766597271,
746.9799805,1.758307695,
747.9400024,1.708291769,
749.039978,1.650761485,
750,1.718322158,

Sample 3,
Sample 3
Collection Time: 15/08/2023 1:31:58 PM
Operator Name  :
Scan Software Version: 1.2(147)
Parameter List :
Instrument                        Cary Eclipse
Instrument Serial Number          test
Data mode                         Fluorescence
Scan mode                         Emission
X Mode                            Wavelength (nm)
Start (nm)                        340.00
Stop (nm)                         750.00
Ex. Wavelength (nm)               330.00
Ex. Slit (nm)                     5
Em. Slit (nm)                     5
Scan rate (nm/min)                120.00
Data interval (nm)                1.0000
Averaging Time (s)                0.5000
Excitation filter                 Auto
Emission filter                   Open
PMT voltage (V)                   Medium
Corrected spectra                 OFF
Method Log     :
Method Name    : Default
Date/Time stamp: 15/08/2023 1:30:02 PM
Method Modifications:
Overlayed Graphs Changed: 15/08/2023 1:30:29 PM, Old:OFF, New:ON
Excitation Wavelength Changed: 15/08/2023 1:30:29 PM, Old: 350.00, New: 330.00
Emission Wavelength Changed: 15/08/2023 1:30:29 PM, Old: 400.00, New: 340.00
Stop Wavelength Changed: 15/08/2023 1:30:29 PM, Old: 600.00, New: 750.00
Scan Control Changed: 15/08/2023 1:31:45 PM, Old:Medium, New:Slow
Ave. time (s): Changed: 15/08/2023 1:31:45 PM, Old:0.10000, New:0.50000
End Method Modifications

