Sample 8,,
Wavelength (nm),Intensity (a.u.),
355,1.117115617,
356.0599976,0.8169600964,
356.9599915,0.6990855932,
358.0299988,0.6385961771,
358.9299927,0.5828476548,
360,0.4214489162,
361.0700073,0.3971687257,
362,0.529542923,
363.0700073,0.414362669,
364,0.6429789066,
365.0700073,0.5598242283,
366,0.5550890565,
367.0700073,0.4639849365,
368,0.3898309767,
369.0700073,0.5247408152,
370,0.5132153034,
371.0599976,0.6330093145,
371.9599915,0.5771755576,
373.0299988,0.4065781534,
373.9299927,0.5713469386,
375,0.5029970407,
376.0599976,0.5627145171,
376.9599915,0.4943572581,
378.0299988,0.6943094134,
378.9299927,0.6622707248,
380,0.7637906671,
381.0700073,0.8290009499,
382,0.9693734646,
383.0700073,1.246423602,
384,1.385930538,
385.0700073,1.613885045,
386,1.782178164,
387.0700073,1.915931225,
388,1.925342679,
389.0700073,1.80123961,
390,1.704944253,
391.0599976,1.470413566,
391.9599915,1.041546106,
393.0299988,1.215471148,
393.9299927,1.334569573,
395,1.08678329,
396.0599976,1.038026929,
396.9599915,0.9730593562,
398.0299988,1.251795888,
398.9299927,1.049347639,
400,1.316084146,
401.0599976,1.190122008,
401.9599915,0.9827533364,
403.0299988,1.1753968,
403.9299927,1.225682378,
405,1.114126563,
406.0599976,1.242600322,
406.9599915,1.320354581,
408.0299988,1.315394402,
408.9299927,1.305594206,
410,1.235424757,
411.0599976,1.287469506,
411.9599915,1.251874089,
413.0299988,1.265219927,
413.9299927,1.133128405,
415,1.237968087,
416.0599976,1.17374289,
416.9599915,1.364060521,
418.0299988,1.18155086,
418.9299927,1.186725736,
420,1.295262218,
421.0599976,1.341894507,
421.9599915,1.176571846,
423.0299988,1.323944569,
423.9299927,1.38875103,
425,1.299089193,
426.0599976,1.245822906,
426.9599915,1.36513865,
428.0299988,1.192131877,
428.9299927,1.349125147,
430,1.354154706,
431.0400085,1.281099439,
431.9400024,1.284872413,
432.980011,1.417742014,
434.019989,1.121314883,
435.0700073,1.287354946,
435.9700012,1.222702384,
437.0100098,1.498339057,
438.0499878,1.368267775,
438.9500122,1.233480215,
440,1.280719519,
441.0599976,1.388622165,
441.9599915,1.309672832,
443.0299988,1.304347873,
443.9299927,1.019566655,
445,1.469069481,
446.0599976,1.298683047,
446.9599915,1.139149189,
448.0299988,1.317214608,
448.9299927,1.274195433,
450,1.334878445,
451.0599976,1.238176107,
451.9599915,1.44323051,
453.0299988,1.279590487,
453.9299927,1.18254137,
455,1.136380196,
456.0599976,1.2495538,
456.9599915,1.21140492,
458.0299988,1.246264935,
458.9299927,1.108374357,
460,1.153638363,
461.0400085,1.191239834,
461.9400024,1.205900073,
462.980011,1.451926708,
464.019989,1.231198311,
465.0700073,1.203475356,
465.9700012,1.121991038,
467.0100098,1.143601656,
468.0499878,1.219875097,
468.9500122,1.262720108,
470,1.041376352,
471.0400085,1.182481766,
471.9400024,0.998018682,
472.980011,1.076013803,
474.019989,1.207785606,
475.0700073,1.06208086,
475.9700012,1.142770052,
477.0100098,1.146940708,
478.0499878,0.9909923077,
478.9500122,1.079092979,
480,0.9889901876,
481.0400085,0.9908165336,
481.9400024,1.12681973,
482.980011,0.9997500777,
484.019989,0.97604388,
485.0700073,0.9725367427,
485.9700012,0.9833695292,
487.0100098,1.07918334,
488.0499878,1.016574621,
488.9500122,0.8613903522,
490,0.9462276101,
491.0400085,0.8673779368,
491.9400024,0.8967716098,
492.980011,0.8280310631,
494.019989,0.9040404558,
495.0700073,0.7592797279,
495.9700012,0.9242945313,
497.0100098,0.8561524153,
498.0499878,0.8944293857,
498.9500122,0.7551578283,
500,0.9450400472,
501.0400085,0.9094629884,
501.9400024,0.6603502631,
502.980011,0.9863094687,
504.019989,0.769482851,
505.0700073,0.8471534252,
505.9700012,0.9013703465,
507.0100098,0.7177336216,
508.0499878,0.8240209222,
508.9500122,0.7186436653,
510,0.6937365532,
511.0400085,0.8885504007,
511.9400024,0.7662835121,
512.9799805,0.6202949286,
514.0200195,0.6604369879,
515.0700073,0.7354531288,
515.9699707,0.6403870583,
517.0100098,0.5790891051,
518.0499878,0.6786023974,
518.9500122,0.7528836727,
520,0.57755059,
521.0200195,0.6898335814,
522.0499878,0.5591668487,
522.9400024,0.6492850184,
523.9699707,0.5940510035,
525,0.5647882819,
526.0200195,0.4878888726,
527.0499878,0.5456835032,
527.9400024,0.6449894309,
528.9699707,0.6147687435,
530,0.6902380586,
531.039978,0.612963438,
531.9400024,0.5924497247,
532.9799805,0.45225209,
534.0200195,0.453334868,
535.0700073,0.5472685695,
535.9699707,0.5324440598,
537.0100098,0.5369127393,
538.0499878,0.4836582243,
538.9500122,0.591424346,
540,0.4896268845,
541.0200195,0.6763421297,
542.0499878,0.3516965806,
542.9400024,0.4330213666,
543.9699707,0.4095004201,
545,0.2561074495,
546.0200195,0.4510472715,
547.0499878,0.5621688366,
547.9400024,0.3007303476,
548.9699707,0.330578506,
550,0.4700185061,
551.0200195,0.4406225681,
552.0499878,0.280115962,
552.9400024,0.3633264005,
553.9699707,0.4366089106,
555,0.3450010717,
556.0200195,0.3125232458,
557.0499878,0.2809620202,
557.9400024,0.3891537189,
558.9699707,0.4456007779,
560,0.3758800626,
561.0200195,0.340541482,
562.0499878,0.3517308235,
562.9400024,0.3104319274,
563.9699707,0.3714710176,
565,0.2255935967,
566.0200195,0.3972758055,
567.0499878,0.3256176114,
567.9400024,0.3492741883,
568.9699707,0.2901831269,
570,0.242016986,
571.0100098,0.4047237039,
572.0200195,0.3399385214,
573.039978,0.1950539947,
574.0499878,0.2292263657,
575.0700073,0.2654150426,
575.9400024,0.3845441639,
576.9500122,0.2343910187,
577.9699707,0.3463403285,
578.9799805,0.3734880984,
580,0.2147920132,
581.0200195,0.2188215703,
582.0499878,0.1685511619,
582.9400024,0.2694347501,
583.9699707,0.214801237,
585,0.2682744265,
586.0200195,0.2071508467,
587.0499878,0.09843627363,
587.9400024,0.2393590808,
588.9699707,0.3354431987,
590,0.2094504088,
591.0100098,0.3293898106,
592.0200195,0.1986153722,
593.039978,0.3125,
594.0499878,0.1999057531,
595.0700073,0.2845314443,
595.9400024,0.3142228723,
596.9500122,0.2040340453,
597.9699707,0.102676928,
598.9799805,0.2690112889,
600,0.2672969103,
601.0100098,0.1793132275,
602.0200195,0.2300635576,
603.039978,0.2537641525,
604.0499878,0.1986238211,
605.0700073,0.1411532313,
605.9400024,0.2855266631,
606.9500122,0.1873684824,
607.9699707,0.2303450853,
608.9799805,0.1838729382,
610,0.1133032143,
611.0100098,0.2373570353,
612.0200195,0.1657175571,
613.039978,0.2698710263,
614.0499878,0.1987732798,
615.0700073,0.2481498271,
615.9400024,0.1881113499,
616.9500122,0.1116118133,
617.9699707,0,
618.9799805,0.08481284976,
620,0.05709391832,
621.0100098,0.1565279216,
622.0200195,0.02824539691,
623.039978,0.1282033026,
624.0499878,0.1026874781,
625.0700073,0.08538129926,
625.9400024,0.04549935833,
626.9500122,0.01455815975,
627.9699707,0.2042334676,
628.9799805,0.114744693,
630,0.05683271214,
631,0.1737443358,
632,0.1547443271,
633,0.08458090574,
634,0.1133240834,
635,0,
636,0.08666136861,
637,0.1321411282,
638,0.1275980324,
639,0.2634930313,
640,0.1722479761,
641.0100098,0.04260758683,
642.0200195,0.3142857254,
643.039978,0.1002377048,
644.0499878,0.02809738554,
645.0700073,0.1254722625,
645.9400024,0.1824382246,
646.9500122,0.01461817417,
647.9699707,0.02863319404,
648.9799805,0.02820397168,
650,0.02835592441,
651,0.1439801902,
652,-0.04355274513,
653,0.02913625538,
654,0,
655,0.01431372855,
656,0.07431076467,
657,0.07536022365,
658,0.1137769744,
659,0.1544922143,
660,0.2241080552,
661,-0.08470149338,
662,0,
663,0.235256061,
664,0.05811335146,
665,0.2494826913,
666,-0.02916302159,
667,0.1165501177,
668,0.05824875087,
669,0.04899319261,
670,-0.03020509146,
670.9799805,-0.03123584576,
671.9699707,0.07424345613,
672.9500122,0.1458065957,
673.9400024,0.1767153442,
675.0700073,0.1308615059,
676.0499878,0.1017678529,
677.039978,0,
678.0200195,0.05739539862,
679.0100098,0.1014654487,
680,0.08517645299,
681,0.1034233123,
682,0.07372674346,
683,0.1076608375,
684,0.2785903215,
685,0.4650824666,
686,0.8543609381,
687,1.232174754,
688,1.734120965,
689,2.422587156,
690,2.906851292,
690.9799805,2.98622632,
691.9699707,3.205267668,
692.9500122,3.616860151,
693.9400024,3.567929506,
695.0700073,3.061385155,
696.0499878,2.869722843,
697.039978,2.509730816,
698.0200195,1.883799314,
699.0100098,1.49953413,
700,1.222846508,

Sample 8,
Sample 8
Collection Time: 23/05/2023 5:04:50 PM
Operator Name  :
Scan Software Version: 1.2(147)
Parameter List :
Instrument                        Cary Eclipse
Instrument Serial Number          test
Data mode                         Fluorescence
Scan mode                         Emission
X Mode                            Wavelength (nm)
Start (nm)                        355.00
Stop (nm)                         700.00
Ex. Wavelength (nm)               345.00
Ex. Slit (nm)                     5
Em. Slit (nm)                     5
Scan rate (nm/min)                600.00
Data interval (nm)                1.0000
Averaging Time (s)                0.1000
Excitation filter                 Auto
Emission filter                   Open
PMT voltage (V)                   Medium
Corrected spectra                 OFF
Method Log     :
Method Name    : Default
Date/Time stamp: 23/05/2023 2:20:55 PM
Method Modifications:
Overlayed Graphs Changed: 23/05/2023 2:21:20 PM, Old:OFF, New:ON
Excitation Wavelength Changed: 23/05/2023 2:21:20 PM, Old: 350.00, New: 340.00
Emission Wavelength Changed: 23/05/2023 2:21:20 PM, Old: 400.00, New: 350.00
Stop Wavelength Changed: 23/05/2023 2:21:56 PM, Old: 600.00, New: 650.00
Scan mode: Changed: 23/05/2023 2:23:07 PM, Old:Emission, New:Excitation
Excitation Wavelength Changed: 23/05/2023 2:23:07 PM, Old: 340.00, New: 220.00
Emission Wavelength Changed: 23/05/2023 2:23:07 PM, Old: 350.00, New: 390.00
Stop Wavelength Changed: 23/05/2023 2:23:07 PM, Old: 650.00, New: 380.00
User Delta Stop Changed: 23/05/2023 2:23:57 PM, Old: 450.00, New: 490.00
User Delta Increment Changed: 23/05/2023 2:23:57 PM, Old:  10.00, New:   0.15
Emission Wavelength Changed: 23/05/2023 2:23:57 PM, Old: 390.00, New: 490.00
Stop Wavelength Changed: 23/05/2023 2:23:57 PM, Old: 380.00, New: 480.00
Scan mode: Changed: 23/05/2023 4:52:05 PM, Old:Excitation, New:Emission
Excitation Wavelength Changed: 23/05/2023 4:52:05 PM, Old: 220.00, New: 340.00
Emission Wavelength Changed: 23/05/2023 4:52:05 PM, Old: 490.00, New: 350.00
Stop Wavelength Changed: 23/05/2023 4:52:05 PM, Old: 480.00, New: 650.00
Excitation Wavelength Changed: 23/05/2023 5:04:00 PM, Old: 340.00, New: 345.00
Emission Wavelength Changed: 23/05/2023 5:04:00 PM, Old: 350.00, New: 355.00
Stop Wavelength Changed: 23/05/2023 5:04:00 PM, Old: 650.00, New: 700.00
End Method Modifications

