Sample 8,,
Wavelength (nm),Intensity (a.u.),
334.9200134,0.9003948569,
335.8399963,0.6819992661,
336.9200134,0.8338800669,
337.8399963,0.7319098115,
338.9200134,0.8685911894,
339.8399963,0.9313283563,
340.9200134,1.050965905,
341.8399963,0.9488750696,
342.9200134,1.041142821,
343.8399963,0.9920403957,
344.9200134,1.048123479,
345.8399963,1.126970053,
346.9200134,0.9957268834,
347.8399963,1.0692029,
348.9200134,1.06697762,
349.8399963,1.128548503,
350.8999939,1.143517137,
351.9599915,1.239432096,
352.8699951,1.298646212,
353.9299927,1.465103149,
354.8399963,1.568292856,
355.8999939,1.701448321,
356.9599915,1.845854044,
357.8699951,1.931509733,
358.9299927,2.08941412,
359.8399963,2.267328739,
360.9200134,2.506807327,
361.8399963,2.49296689,
362.9200134,2.536735058,
363.8399963,2.358159781,
364.9200134,2.181944132,
365.8399963,1.896685481,
366.9200134,1.661110401,
367.8399963,1.496894598,
368.9200134,1.390820622,
369.8399963,1.297054172,
370.8999939,1.399714351,
371.9599915,1.294544458,
372.8699951,1.408870101,
373.9299927,1.453013539,
374.8399963,1.4184196,
375.8999939,1.426479816,
376.9599915,1.367453456,
377.8699951,1.392543077,
378.9299927,1.319152832,
379.8399963,1.289587259,
380.9200134,1.213464499,
381.8399963,1.222448349,
382.9200134,1.204418182,
383.8399963,1.243722081,
384.9200134,1.190080285,
385.8399963,1.334343791,
386.9200134,1.425350189,
387.8399963,1.50282979,
388.9200134,1.63617599,
389.8399963,1.832042336,
390.8999939,1.978299856,
391.9599915,2.253597736,
392.8699951,2.442371607,
393.9299927,2.719625235,
394.8399963,3.278354168,
395.8999939,3.798797607,
396.9599915,4.52318573,
397.8699951,5.227646828,
398.9299927,5.998493195,
399.8399963,7.057656765,
400.8999939,8.79985714,
401.9599915,10.98249531,
402.8699951,12.6132822,
403.9299927,15.18067074,
404.8399963,17.88722038,
405.8999939,21.05621338,
406.9599915,24.50430298,
407.8699951,27.27448082,
408.9299927,30.17655563,
409.8399963,32.54523468,
410.8999939,35.2483139,
411.9599915,37.40660477,
412.8699951,39.82478333,
413.9299927,42.02812958,
414.8399963,43.83037949,
415.8999939,45.75393677,
416.9599915,47.95338821,
417.8699951,49.33651352,
418.9299927,51.28256989,
419.8399963,52.65100861,
420.8999939,54.27070999,
421.9599915,56.44112778,
422.8699951,58.28475571,
423.9299927,61.10707092,
424.8399963,63.9382019,
425.8999939,67.32269287,
426.9599915,69.93099213,
427.8699951,74.09352112,
428.9299927,78.97891235,
429.8399963,82.922966,
430.8900146,87.94096375,
431.9400024,91.90775299,
432.980011,96.37208557,
433.8800049,99.78691101,
434.9200134,102.9657822,
435.9700012,106.5270538,
436.8599854,108.5823212,
437.9100037,110.1467743,
438.9500122,111.9601669,
439.8500061,113.1781158,
440.8999939,114.4753723,
441.9599915,115.3026733,
442.8699951,115.788353,
443.9299927,116.088974,
444.8399963,116.1364822,
445.8999939,116.3012085,
446.9599915,116.8908081,
447.8699951,117.0346146,
448.9299927,117.6478958,
449.8399963,118.2418747,
450.8999939,119.646431,
451.9599915,120.1491394,
452.8699951,121.9622192,
453.9299927,122.7455063,
454.8399963,124.0615463,
455.8999939,126.3877487,
456.9599915,127.6717911,
457.8699951,129.8756866,
458.9299927,131.193222,
459.8399963,133.3386688,
460.8900146,133.3478394,
461.9400024,135.1835632,
462.980011,137.2578735,
463.8800049,137.1448822,
464.9200134,136.9744568,
465.9700012,137.355072,
466.8599854,136.5401306,
467.9100037,136.0287018,
468.9500122,134.6687622,
469.8500061,133.0936737,
470.8900146,131.9321594,
471.9400024,129.6281281,
472.980011,128.3947449,
473.8800049,127.0893936,
474.9200134,125.3009567,
475.9700012,122.9631577,
476.8599854,121.1446915,
477.9100037,118.7896271,
478.9500122,116.9429321,
479.8500061,115.8134689,
480.8900146,114.1155624,
481.9400024,112.4184341,
482.980011,110.7849808,
483.8800049,109.3812408,
484.9200134,107.7840347,
485.9700012,106.4196472,
486.8599854,105.4221191,
487.9100037,103.9998627,
488.9500122,102.0843048,
489.8500061,100.8238297,
490.8900146,99.65950012,
491.9400024,98.36257172,
492.980011,97.58001709,
493.8800049,95.76421356,
494.9200134,94.62944031,
495.9700012,92.53852081,
496.8599854,91.31505585,
497.9100037,89.66976929,
498.9500122,87.99328613,
499.8500061,86.67073059,
500.8900146,84.66025543,
501.9400024,82.24440765,
502.980011,80.77738953,
503.8800049,79.27075958,
504.9200134,77.62809753,
505.9700012,75.7154541,
506.8599854,74.03738403,
507.9100037,71.93605042,
508.9500122,70.29882813,
509.8500061,68.9278717,
510.8900146,66.97963715,
511.9400024,65.37014008,
512.9799805,63.65607071,
513.8800049,62.4994545,
514.9199829,61.09388733,
515.9699707,59.40768814,
516.8599854,58.23423386,
517.9099731,56.67937088,
518.9500122,55.66388702,
519.8499756,54.16566849,
520.8800049,52.79375458,
521.9099731,51.61170959,
522.9400024,50.67246628,
523.9699707,49.56917191,
524.8499756,48.07614517,
525.8800049,47.38382339,
526.9099731,46.04450989,
527.9400024,45.18559265,
528.9699707,44.11219025,
529.8499756,43.01564407,
530.8900146,42.25938797,
531.9400024,41.36615372,
532.9799805,39.95788956,
533.8800049,39.27471924,
534.9199829,38.16182709,
535.9699707,37.12503052,
536.8599854,36.32550049,
537.9099731,35.70510101,
538.9500122,34.48286057,
539.8499756,33.44797516,
540.8800049,32.79284286,
541.9099731,31.71639442,
542.9400024,31.08213234,
543.9699707,30.1156044,
544.8499756,29.33601952,
545.8800049,28.57601547,
546.9099731,27.69073296,
547.9400024,26.90456772,
548.9699707,26.20971298,
549.8499756,25.43031502,
550.8800049,24.71391678,
551.9099731,24.15515709,
552.9400024,23.33196831,
553.9699707,22.54835701,
554.8499756,21.82975578,
555.8800049,21.497509,
556.9099731,20.75723457,
557.9400024,20.33665657,
558.9699707,19.67636871,
559.8499756,19.04874229,
560.8800049,18.5277729,
561.9099731,17.99201584,
562.9400024,17.74447441,
563.9699707,17.03853226,
564.8499756,16.67175865,
565.8800049,16.32256889,
566.9099731,15.8403368,
567.9400024,15.28920555,
568.9699707,14.87059307,
569.8499756,14.62852859,
570.8599854,13.97875595,
571.8800049,13.80963612,
572.8900146,13.18456078,
573.9099731,12.93412113,
574.9199829,12.61160374,
575.9400024,12.26146412,
576.9500122,11.9490099,
577.9699707,11.66532135,
578.9799805,11.12076283,
579.8499756,10.7702713,
580.8800049,10.63480377,
581.9099731,10.33020973,
582.9400024,9.945225716,
583.9699707,9.592546463,
584.8499756,9.468700409,
585.8800049,9.001856804,
586.9099731,8.893920898,
587.9400024,8.469366074,
588.9699707,8.280456543,
589.8499756,8.203327179,
590.8599854,7.909268856,
591.8800049,7.610444069,
592.8900146,7.403110981,
593.9099731,7.218598843,
594.9199829,7.001367569,
595.9400024,6.80680418,
596.9500122,6.574629784,
597.9699707,6.43904829,
598.9799805,6.15650177,
599.8499756,6.011182308,
600.8599854,5.727539063,
601.8800049,5.713940144,
602.8900146,5.413518429,
603.9099731,5.315155983,
604.9199829,5.096605778,
605.9400024,5.04669857,
606.9500122,4.874121666,
607.9699707,4.810610294,
608.9799805,4.601715565,
609.8499756,4.418410778,
610.8599854,4.260863781,
611.8800049,4.309824467,
612.8900146,4.12916708,
613.9099731,3.916769266,
614.9199829,3.899871588,
615.9400024,3.745783091,
616.9500122,3.680197716,
617.9699707,3.564918518,
618.9799805,3.441889763,
619.8499756,3.322258949,
620.8599854,3.240540028,
621.8800049,3.02081418,
622.8900146,3.008734465,
623.9099731,3.086107731,
624.9199829,2.909502268,
625.9400024,2.681892157,
626.9500122,2.703515291,
627.9699707,2.58775425,
628.9799805,2.543545246,
629.8499756,2.397443295,
630.8499756,2.373012781,
631.8499756,2.327615738,
632.8499756,2.290151596,
633.8499756,2.141002417,
634.8499756,2.131362677,
635.8499756,2.067069292,
636.8499756,1.941146374,
637.8499756,1.908739686,
638.8499756,1.882753134,
639.8499756,1.784402132,
640.8599854,1.813504934,
641.8800049,1.713222742,
642.8900146,1.754492402,
643.9099731,1.927357554,
644.9199829,2.061229229,
645.9400024,2.476760626,
646.9500122,3.050525427,
647.9699707,3.590352297,
648.9799805,4.359990597,
649.8499756,4.726196766,
650.8499756,5.581899643,
651.8499756,6.025446415,
652.8499756,6.19467783,
653.8499756,6.123756409,
654.8499756,5.839488029,
655.8499756,5.404842377,
656.8499756,4.962701321,
657.8499756,4.191322327,
658.8499756,3.378850698,
659.8499756,2.834568501,
660.8499756,2.287589312,
661.8499756,1.701972246,
662.8499756,1.443495035,
663.8499756,1.105997682,
664.8499756,0.9278709888,
665.8499756,0.8566281199,
666.8499756,0.882584393,
667.8499756,0.7959368825,
668.8499756,0.8043287396,
669.8499756,0.8014800549,
670.9799805,0.8115580082,
671.9699707,0.7373230457,
672.9500122,0.7292795181,
673.9400024,0.7241852283,
674.9199829,0.7920347452,
675.9099731,0.6615877748,
676.9000244,0.7345893979,
677.8800049,0.6583220959,
678.8699951,0.6677632332,
679.8499756,0.6430850029,
680.8499756,0.6305170059,
681.8499756,0.6466495991,
682.8499756,0.5742813349,
683.8499756,0.5995967388,
684.8499756,0.5922089815,
685.8499756,0.5292207599,
686.8499756,0.5210157037,
687.8499756,0.5134373307,
688.8499756,0.5590734482,
689.8499756,0.4553954303,
690.9799805,0.4520490468,
691.9699707,0.4871353209,
692.9500122,0.4377657473,
693.9400024,0.4280683994,
694.9199829,0.4535239637,
695.9099731,0.4401813745,
696.9000244,0.3480138183,
697.8800049,0.4270540178,
698.8699951,0.3699538708,
699.8499756,0.4142139554,
700.9799805,0.3720774651,
701.9699707,0.3173806071,
702.9500122,0.4213893712,
703.9400024,0.3629976809,
704.9199829,0.3928461671,
705.9099731,0.3720259368,
706.9000244,0.3380867839,
707.8800049,0.3931562304,
708.8699951,0.377537936,
709.8499756,0.3960179985,
710.9799805,0.426938355,
711.9699707,0.3489183486,
712.9500122,0.3626594245,
713.9400024,0.3241018057,
714.9199829,0.3767653406,
715.9099731,0.3627566099,
716.9000244,0.4873531759,
717.8800049,0.4081597626,
718.8699951,0.403665632,
719.8499756,0.4091147184,
720.9699707,0.395131737,
721.9400024,0.4750002027,
722.9099731,0.3402085006,
723.8800049,0.4237118363,
724.8599854,0.4127890468,
725.9699707,0.3884221315,
726.9400024,0.406357646,
727.9099731,0.3766009212,
728.8800049,0.2380979657,
729.8599854,0.3499830663,
730.9799805,0.3272715509,
731.9699707,0.305485189,
732.9500122,0.24611561,
733.9400024,0.2575410604,
734.9199829,0.259883523,
735.9099731,0.2627062798,
736.9000244,0.1771914512,
737.8800049,0.2402148247,
738.8699951,0.2733983397,
739.8499756,0.2379390895,
740.9500122,0.1956023872,
741.9099731,0.2620751858,
742.8699951,0.1660691947,
743.9699707,0.162308082,
744.9299927,0.2058966458,
745.8900146,0.2004485428,
746.9799805,0.2200009972,
747.9400024,0.1485252231,
748.9000244,0.1790603399,
749.8599854,0.1870655864,
750.9699707,0.1805038303,

Sample 8,
Sample 8
Collection Time: 22/08/2023 12:08:58 PM
Operator Name  :
Scan Software Version: 1.2(147)
Parameter List :
Instrument                        Cary Eclipse
Instrument Serial Number          test
Data mode                         Fluorescence
Scan mode                         Emission
X Mode                            Wavelength (nm)
Start (nm)                        335.00
Stop (nm)                         750.00
Ex. Wavelength (nm)               325.00
Ex. Slit (nm)                     5
Em. Slit (nm)                     5
Scan rate (nm/min)                120.00
Data interval (nm)                1.0000
Averaging Time (s)                0.5000
Excitation filter                 Auto
Emission filter                   Open
PMT voltage (V)                   Medium
Corrected spectra                 OFF
Method Log     :
Method Name    : Default
Date/Time stamp: 22/08/2023 11:38:10 AM
Method Modifications:
Overlayed Graphs Changed: 22/08/2023 11:47:15 AM, Old:OFF, New:ON
Scan Control Changed: 22/08/2023 11:47:15 AM, Old:Medium, New:Slow
Ave. time (s): Changed: 22/08/2023 11:47:15 AM, Old:0.10000, New:0.50000
Excitation Wavelength Changed: 22/08/2023 11:47:15 AM, Old: 350.00, New: 340.00
Emission Wavelength Changed: 22/08/2023 11:47:15 AM, Old: 400.00, New: 350.00
Stop Wavelength Changed: 22/08/2023 11:47:15 AM, Old: 600.00, New: 750.00
Excitation Wavelength Changed: 22/08/2023 11:48:29 AM, Old: 340.00, New: 378.00
Emission Wavelength Changed: 22/08/2023 11:48:29 AM, Old: 350.00, New: 390.00
PMT Volts Changed: 22/08/2023 11:52:22 AM, Old:600, New:800
Emission PMT (V): Changed: 22/08/2023 11:52:22 AM, Old: 600, New: 800
Scan mode: Changed: 22/08/2023 11:59:48 AM, Old:Emission, New:Excitation
User Delta Stop Changed: 22/08/2023 11:59:48 AM, Old: 450.00, New: 483.00
User Delta Increment Changed: 22/08/2023 11:59:48 AM, Old:  10.00, New:   0.15
Excitation Wavelength Changed: 22/08/2023 11:59:48 AM, Old: 378.00, New: 220.00
Emission Wavelength Changed: 22/08/2023 11:59:48 AM, Old: 390.00, New: 483.00
Stop Wavelength Changed: 22/08/2023 11:59:48 AM, Old: 750.00, New: 373.00
Stop Wavelength Changed: 22/08/2023 12:02:41 PM, Old: 373.00, New: 473.00
PMT Volts Changed: 22/08/2023 12:08:26 PM, Old:800, New:600
Emission PMT (V): Changed: 22/08/2023 12:08:26 PM, Old: 800, New: 600
Scan mode: Changed: 22/08/2023 12:08:56 PM, Old:Excitation, New:Emission
Excitation Wavelength Changed: 22/08/2023 12:08:56 PM, Old: 220.00, New: 325.00
Emission Wavelength Changed: 22/08/2023 12:08:56 PM, Old: 483.00, New: 335.00
Stop Wavelength Changed: 22/08/2023 12:08:56 PM, Old: 473.00, New: 750.00
End Method Modifications

