Sample 12,,
Wavelength (nm),Intensity (a.u.),
220,9.511266708,
220.9299927,9.798865318,
222.0299988,7.995618343,
222.9600067,8.468532562,
224.0599976,8.445106506,
225,7.762950897,
225.9299927,7.23172617,
227.0299988,6.67944622,
227.9600067,6.520973206,
229.0599976,5.312357426,
230,5.575568199,
230.9299927,5.10167408,
232.0299988,5.189641476,
232.9600067,4.97844553,
234.0599976,4.610213757,
235,4.539692879,
235.9299927,4.136959553,
237.0299988,4.218946457,
237.9600067,4.125573635,
239.0599976,4.348526478,
240,4.663221359,
240.9299927,4.262104034,
242.0299988,4.003026485,
242.9600067,4.335351467,
244.0599976,4.060392857,
245,4.519650936,
245.9299927,3.989403486,
247.0299988,4.170183659,
247.9600067,4.165147781,
249.0599976,4.0643363,
250,3.767925501,
250.9299927,4.166091919,
252.0299988,4.403686523,
252.9600067,4.056162357,
254.0599976,4.117139339,
255,4.166083813,
255.9299927,4.072031021,
257.0299988,3.730023861,
257.9599915,3.831380844,
259.0599976,3.655759335,
260,3.482659101,
261.0700073,3.132015467,
262,2.955733299,
263.0700073,3.01748848,
264,3.258007765,
265.0700073,3.13812089,
266,3.628899574,
267.0700073,4.79044199,
268,5.644221306,
269.0700073,6.69220829,
270,6.495923996,
270.9299927,6.385528088,
272.0299988,5.461380959,
272.9599915,4.76546669,
274.0599976,3.652600527,
275,2.759208679,
275.9299927,2.481140852,
277.0299988,2.247136116,
277.9599915,2.021456242,
279.0599976,1.872310042,
280,1.815582037,
280.9299927,1.634384632,
282.0299988,1.651569843,
282.9599915,1.562088966,
284.0599976,1.449953198,
285,1.22613287,
285.9299927,1.038290858,
287.0299988,1.204437375,
287.9599915,1.140187621,
289.0599976,2.782449961,
290,9.599318504,
291.0700073,23.05236244,
292,37.52319717,
293.0700073,47.54212189,
294,51.96338272,
295.0700073,46.24240875,
296,35.89638519,
297.0700073,20.55968475,
298,12.35644817,
299.0700073,5.302321434,
300,1.626850963,
300.9299927,0.5707976222,
302.0299988,0.1769981235,
302.9599915,0.3543406725,
304.0599976,0.3136697412,
305,0.1643637568,
305.9299927,0.2256632894,
307.0299988,0.1557325125,
307.9599915,0.1699218452,
309.0599976,0.1970341057,
310,0.1399174482,
311.0700073,0.1455286294,
312,0.2186174691,
313.0700073,0.151305303,
314,0.1204311401,
315.0700073,0.133304894,
316,0.317727834,
317.0700073,0.2295255959,
318,0.2394277751,
319.0700073,0.2596410811,
320,0.3029476702,
321.0700073,0.223900646,
322,0.07153587788,
323.0700073,0.09558010101,
324,0.3009458184,
325.0700073,0.3181233406,
326,0.1455095708,
327.0700073,0.364713937,
328,0.3270057738,
329.0700073,0.09600614756,
330,0.06375619769,
330.9299927,0.1486620456,
332.0299988,0.2597323358,
332.9599915,0.1984429806,
334.0599976,0.301982522,
335,0.1986734718,
335.9299927,0,
337.0299988,0.3647435904,
337.9599915,0.2240681201,
339.0599976,0.1773249656,
340,0.2827210426,
341.0700073,0.03003003076,
342,0.2784127295,
343.0700073,0.1997688413,
344,0.07206064463,
345.0700073,0.1137478501,
346,0.05583550781,
347.0700073,0.1460984349,
348,0.2220380157,
349.0700073,0.2040697336,
350,0.0291125048,
351.0700073,0.2866972387,
352,0.1278903186,
353.0700073,0.02310696244,
354,0.119413361,
355.0700073,0.03975550458,
356,0.1119799912,
357.0700073,0.06173764914,
358,0.1526006311,
359.0700073,0.07569907606,
360,0.105068028,
361.0700073,0.06604292989,
362,0.1093297303,
363.0700073,0.08622770756,
364,0.04636885598,
365.0700073,-0.06282459199,
366,0.09824362397,
367.0700073,0.1555244476,
368,0.06891877949,
369.0700073,0.05705092102,
370,0.0649786666,
371.0599976,0.1812482625,
371.9599915,0.1234707609,
373.0299988,0.01968755946,
373.9299927,0.06645905972,
375,0.09675858915,
376.0599976,0.1339483857,
376.9599915,0.03407967836,
378.0299988,0.08533151448,
378.9299927,0.09573542327,
380,0.04503449425,
381.0700073,0.0435077697,
382,0.03487662226,
383.0700073,0.08357919753,
384,0.204355225,
385.0700073,0.05760131404,
386,0.05442599952,
387.0700073,0.0457059294,
388,0.05095170438,
389.0700073,0.1037337184,
390,0.01326154452,
391.0700073,0.01943659782,
392,0.05098984018,
393.0700073,0.05843093619,
394,-0.01966207474,
395.0700073,0.047617428,
396,0.06313485652,
397.0700073,0.02943470702,
398,-0.03704060614,
399.0700073,0.1022091806,
400,-0.0070713358,
401.0599976,0.06089145318,
401.9599915,-0.01994481869,
403.0299988,0.05879931524,
403.9299927,0.08690847456,
405,0.09730150551,
406.0599976,0.006685877219,
406.9599915,0.06997188926,
408.0299988,-0.04689300433,
408.9299927,0.01853384823,
410,0.01887492836,
411.0700073,0.04168279469,
412,0.02964192629,
413.0700073,0.04600159824,
414,0.05468754098,
415.0700073,0.005052291322,
416,0.06006787717,
417.0700073,-0.03798526153,
418,0.01891088486,
419.0700073,0.0319076553,
420,0.05341541395,
421.0599976,0.01953182183,
421.9599915,0,
423.0299988,0.01905911416,
423.9299927,0.02563683502,
425,0.04666199908,
426.0599976,0.04912036657,
426.9599915,0.02420565113,
428.0299988,-0.004315739498,
428.9299927,0.01298639458,
430,0.01715913415,
431.0599976,0.02990967408,
431.9599915,-0.0212923605,
433.0299988,0.02234137617,
433.9299927,-0.004264374264,
435,0.0130494358,
436.0599976,0.008309823461,
436.9599915,0.008355824277,
438.0299988,0.02355842106,
438.9299927,0.02755091898,
440,0.01859766245,
441.0599976,0.02199986018,
441.9599915,0.007726184092,
443.0299988,-0.007433120627,
443.9299927,0.01889423467,
445,0.0144026326,
446.0599976,0.003539810423,
446.9599915,0.03290399909,
448.0299988,0.003849011147,
448.9299927,-0.02012777142,
450,0.008468476124,
451.0599976,0.04252405837,
451.9599915,-0.02262535691,
453.0299988,0.04149913415,
453.9299927,0.02346591651,
455,-0.0144974459,
456.0599976,-0.009265608154,
456.9599915,-0.01358486526,
458.0299988,-0.02131087333,
458.9299927,-0.008630696684,
460,-0.004395662341,
461.0599976,0.05068283528,
461.9599915,0.06378489733,
463.0299988,0.08034064621,
463.9299927,0.01121302508,
465,-0.04174319655,
466.0599976,0.006350415759,
466.9599915,0.02614361979,
468.0299988,-0.02605540678,
468.9299927,-0.05297030881,
470,0.06904789805,
471.0400085,0.02160620503,
471.9400024,0.0512970835,
472.980011,0.07353482395,
474.019989,0.03889900073,
475.0700073,0.04564924538,
475.9700012,0.02177289315,
477.0100098,0.08324189484,
478.0499878,0.0280253347,
478.9500122,0.04071522877,
480,0.04128405452,
481.0599976,-0.00497623859,
481.9599915,0.03642854467,
483.0299988,0.03557101265,
483.9299927,0.0151243601,
485,0.003837475087,
486.0599976,0.02399875037,
486.9599915,0,
488.0299988,0.04783274233,
488.9299927,0.07382870466,
490,0.05577167124,
491.0400085,0.0711248368,
491.9400024,0.09565555304,
492.980011,0.0808769539,
494.019989,0.007131548598,
495.0700073,0.06145289913,
495.9700012,0.1103918105,
497.0100098,-0.00827773381,
498.0499878,0.1760206968,
498.9500122,-0.01845410094,
500,0.3590002358,
501.0599976,0.2560012639,
501.9599915,0.2925871015,
503.0299988,0.4527261257,
503.9299927,0.325278312,
505,0.3947928846,
506.0599976,0.3332903087,
506.9599915,0.1297120303,
508.0299988,0.1054429635,
508.9299927,0.08777405322,
510,0.08716791123,
511.0400085,0.05639309809,
511.9400024,0.01926856488,
512.9799805,0.009765148163,
514.0200195,-0.05959830806,
515.0700073,0.0391209498,
515.9699707,-0.03887760267,
517.0100098,0.009094381705,
518.0499878,0.008825191297,
518.9500122,0.09768486768,
520,0.02688870765,
521.039978,0.06499354541,
521.9400024,0.03775971755,
522.9799805,0.02820370533,
524.0200195,0.06861298531,
525.0700073,-0.007805426139,
525.9699707,0.01358483359,
527.0100098,0.0313959904,
528.0499878,0.09921097755,
528.9500122,0.07430355251,
530,0.1269702017,
531.0200195,0.04328656197,
532.0499878,0.02587539703,
532.9400024,0.05919378251,
533.9699707,0.05594366416,
535,0.03757787868,
536.0200195,0.07805913687,
537.0499878,0.05045196787,
537.9400024,0.09737177938,
538.9699707,0.03166110069,
540,0.02295894921,
541.039978,0.07331808656,
541.9400024,0.09965503961,
542.9799805,0.09002250433,
544.0200195,0.07317667454,
545.0700073,0.1483847946,
545.9699707,0.04766989499,
547.0100098,0.1331721544,
548.0499878,0.1021578014,
548.9500122,0.1482451409,
550,0.01409641933,
551.0200195,-0.01415828988,
552.0499878,0.07223763317,
552.9400024,0,
553.9699707,0.1261232793,
555,0.2411071658,
556.0200195,-0.0336468108,
557.0499878,0.0174510926,
557.9400024,0.07185069472,
558.9699707,0,
560,0.1473540813,
561.039978,0.09508596361,
561.9400024,0.07589124888,
562.9799805,0.1256980747,
564.0200195,0.05500650778,
565.0700073,0.1043950319,
565.9699707,0.2531218231,
567.0100098,0.06622736156,
568.0499878,0.06536588818,
568.9500122,0.1803603917,
570,0.04903322831,
571.0200195,-0.09688827395,
572.0499878,0.04594814032,
572.9400024,-0.01530104782,
573.9699707,0.01511007641,
575,0.07725109905,
576.0200195,0.09896744043,
577.0499878,0.03442281485,
577.9400024,0.201192528,
578.9699707,-0.02012153342,
580,-0.0423361063,
581.0200195,0.02214643173,
582.0499878,0.06921692938,

Sample 12,
Sample 12
Collection Time: 4/05/2023 3:52:10 PM
Operator Name  :
Scan Software Version: 1.2(147)
Parameter List :
Instrument                        Cary Eclipse
Instrument Serial Number          test
Data mode                         Fluorescence
Scan mode                         Excitation
X Mode                            Wavelength (nm)
Start (nm)                        220.00
Stop (nm)                         582.00
Em. Wavelength (nm)               592.00
Ex. Slit (nm)                     5
Em. Slit (nm)                     5
Scan rate (nm/min)                600.00
Data interval (nm)                1.0000
Averaging Time (s)                0.1000
Excitation filter                 Auto
Emission filter                   Open
PMT voltage (V)                   700
Corrected spectra                 OFF
Method Log     :
Method Name    : Default
Date/Time stamp: 4/05/2023 1:48:54 PM
Method Modifications:
Overlayed Graphs Changed: 4/05/2023 1:49:21 PM, Old:OFF, New:ON
User Delta Stop Changed: 4/05/2023 1:51:19 PM, Old: 450.00, New: 530.00
User Delta Increment Changed: 4/05/2023 1:51:19 PM, Old:  10.00, New:   0.15
Excitation Wavelength Changed: 4/05/2023 1:51:19 PM, Old: 350.00, New: 530.00
Emission Wavelength Changed: 4/05/2023 1:51:19 PM, Old: 400.00, New: 540.00
Stop Wavelength Changed: 4/05/2023 1:51:19 PM, Old: 600.00, New: 800.00
Scan mode: Changed: 4/05/2023 1:52:47 PM, Old:Emission, New:Excitation
User Delta Stop Changed: 4/05/2023 1:52:47 PM, Old: 530.00, New: 610.00
Excitation Wavelength Changed: 4/05/2023 1:52:47 PM, Old: 530.00, New: 220.00
Emission Wavelength Changed: 4/05/2023 1:52:47 PM, Old: 540.00, New: 610.00
Stop Wavelength Changed: 4/05/2023 1:52:47 PM, Old: 800.00, New: 600.00
Scan mode: Changed: 4/05/2023 3:19:40 PM, Old:Excitation, New:Emission
Excitation Wavelength Changed: 4/05/2023 3:19:40 PM, Old: 220.00, New: 600.00
Stop Wavelength Changed: 4/05/2023 3:19:40 PM, Old: 600.00, New: 850.00
Scan mode: Changed: 4/05/2023 3:22:27 PM, Old:Emission, New:Excitation
User Delta Stop Changed: 4/05/2023 3:22:27 PM, Old: 610.00, New: 704.00
Excitation Wavelength Changed: 4/05/2023 3:22:27 PM, Old: 600.00, New: 220.00
Emission Wavelength Changed: 4/05/2023 3:22:27 PM, Old: 610.00, New: 704.00
Stop Wavelength Changed: 4/05/2023 3:22:27 PM, Old: 850.00, New: 700.00
User Delta Stop Changed: 4/05/2023 3:25:25 PM, Old: 704.00, New: 780.00
Emission Wavelength Changed: 4/05/2023 3:25:25 PM, Old: 704.00, New: 780.00
Stop Wavelength Changed: 4/05/2023 3:25:25 PM, Old: 700.00, New: 770.00
Emission Wavelength Changed: 4/05/2023 3:26:42 PM, Old: 780.00, New: 740.00
Stop Wavelength Changed: 4/05/2023 3:26:48 PM, Old: 770.00, New: 730.00
Scan mode: Changed: 4/05/2023 3:46:47 PM, Old:Excitation, New:Emission
Excitation Wavelength Changed: 4/05/2023 3:46:47 PM, Old: 220.00, New: 477.00
Emission Wavelength Changed: 4/05/2023 3:46:47 PM, Old: 740.00, New: 487.00
Stop Wavelength Changed: 4/05/2023 3:46:47 PM, Old: 730.00, New: 700.00
Scan mode: Changed: 4/05/2023 3:50:35 PM, Old:Emission, New:Excitation
Excitation Wavelength Changed: 4/05/2023 3:50:35 PM, Old: 477.00, New: 220.00
Emission Wavelength Changed: 4/05/2023 3:50:35 PM, Old: 487.00, New: 592.00
Stop Wavelength Changed: 4/05/2023 3:50:35 PM, Old: 700.00, New: 582.00
PMT Volts Changed: 4/05/2023 3:50:55 PM, Old:600, New:700
Emission PMT (V): Changed: 4/05/2023 3:50:55 PM, Old: 600, New: 700
End Method Modifications

