sample5,,
Wavelength (nm),Abs,
450.0157471,0.0006468541105,
448.9813843,0.0005146590411,
447.9851379,0.0005459674867,
446.988739,0.000457853399,
445.9921265,0.0005353409797,
444.9953308,0.0004811241524,
443.9984131,0.0004813055566,
443.0013123,0.0004054340243,
442.0039368,0.000386520027,
441.0064392,0.0003723221307,
440.0088196,0.0004108751891,
439.0109253,0.0003808200709,
438.0128784,0.0004388334928,
437.0147095,0.0003356895177,
436.0162964,0.0004928895505,
435.0177307,0.0005063139251,
434.0189514,0.0002089500194,
432.9816284,0.0004769259831,
431.9825134,0.0004968546564,
430.9832458,0.0002675103024,
429.9837341,0.0003381246934,
428.9841614,0.0003807941684,
427.9843445,0.0002891389595,
426.984314,0.0003312077897,
425.9842224,0.0003416997497,
424.9839172,0.0002747888211,
423.9833374,0.0003657414927,
422.9826965,9.255219629E-005,
421.9818726,0.0004404141218,
420.980835,0.0002174706897,
420.0181274,0.0003015467664,
419.0167542,0.0004191407061,
418.0152588,0.0003978424065,
417.0135803,0.0003119343601,
416.0116882,0.0005210086238,
415.009613,0.0004289869685,
414.0074768,0.0005552723305,
413.0050964,0.0004090096336,
412.0025024,0.0008111690986,
410.9998169,0.0007514982135,
409.9969482,0.0006585980882,
408.993927,0.0007392849657,
407.9906616,0.0007532614982,
406.9873047,0.0008680987521,
405.9837952,0.001169522293,
405.0187073,0.001417211024,
404.0148315,0.001572386944,
403.0108032,0.001603849698,
402.0065918,0.001782406936,
401.0022278,0.001838528202,
399.9977112,0.00214210921,
398.993042,0.001870452194,
397.9881897,0.002156755188,
396.9831543,0.002517548855,
396.0166626,0.002656136872,
395.011322,0.002734096022,
394.0058289,0.002965242136,
393.0002136,0.00355537748,
391.9944153,0.003931623418,
390.9884338,0.004342994653,
389.9823303,0.004901285749,
389.01474,0.005421763286,
388.0083313,0.006191401277,
387.001709,0.006860041525,
385.9949646,0.007873041555,
384.9880676,0.008890841156,
383.9809875,0.009799550287,
383.0124817,0.01072162669,
382.005127,0.01169203874,
380.9975891,0.0130618941,
379.9898987,0.01416467968,
378.9820862,0.0152845094,
378.0128479,0.01682594419,
377.0047302,0.0183872655,
375.9964294,0.02037375979,
374.9879456,0.02279096283,
374.018158,0.02508795075,
373.0094299,0.02837815136,
372.0005188,0.03215893731,
370.9914856,0.03658910841,
369.9822693,0.04225065932,
369.0117493,0.04830329865,
368.0022583,0.05582860112,
366.9926147,0.06382034719,
365.9828186,0.07317087799,
365.0117188,0.08294485509,
364.0016174,0.0919681862,
362.991394,0.1001018286,
361.9809875,0.1064231545,
361.0093384,0.1105346084,
359.9986267,0.1117618755,
358.987854,0.1098474115,
358.0157471,0.1057692096,
357.0046692,0.1012615189,
355.9934082,0.09542310983,
354.9820251,0.09286560863,
354.0093689,0.09093634784,
352.9976807,0.09018003941,
351.9858704,0.09040489793,
351.0128174,0.09101203084,
350.0007019,0.09241598099,
348.9884949,0.09519656748,
348.0150146,0.09842006862,
347.0025024,0.1023800373,
345.9898376,0.1057225466,
345.0159912,0.1085198745,
344.0030518,0.1097396836,
342.9899902,0.1088525429,
342.0157166,0.1069441512,
341.0023499,0.1019734889,
339.9888306,0.09594301134,
339.0142212,0.09004143625,
338.0004883,0.08515953273,
336.9865417,0.08131047338,
336.0115051,0.07799106091,
334.997345,0.07525453717,
333.9830322,0.07324352115,
333.0075989,0.0721161291,
331.9930725,0.07135171443,
331.017334,0.07081918418,
330.0025024,0.07184060663,
328.9875488,0.07309276611,
328.0114746,0.07431167364,
326.9962463,0.07658877224,
325.9808655,0.07870274037,
325.004425,0.08209229261,
323.9888,0.08493243158,
323.0121155,0.08576759696,
321.9962158,0.08378320932,
321.0192871,0.07859636098,
320.0031433,0.07101936638,
318.9868469,0.06468299031,
318.009552,0.06103321165,
316.993042,0.0578764379,
316.0154724,0.05534348637,
314.9986572,0.05327747762,
313.981781,0.05148711056,
313.0038757,0.05015130341,
311.9866943,0.0500116609,
311.0085144,0.05041863024,
309.9910889,0.05153301358,
309.0127258,0.05198509246,
307.9950562,0.05154548958,
307.0164185,0.0492827408,
305.9985046,0.04592271522,
304.9804688,0.041976735,
304.0014954,0.0394128263,
302.9832458,0.03694527224,
302.0039673,0.03563087806,
300.9855042,0.03416544944,
300.0060425,0.03313727304,
298.9872742,0.03264440969,
298.0075989,0.03322447464,
296.9886169,0.03446295857,
296.008728,0.03734319285,
294.9894714,0.04146597162,
294.0093079,0.04733523726,
292.9898376,0.0582026951,
292.0094604,0.08113017678,
290.9898071,0.1326733828,
290.0091858,0.2203194946,
288.9892578,0.3697708249,
288.0084229,0.4757729471,
286.9883118,0.4466703832,
286.0072632,0.3167917132,
284.9868469,0.2229934931,
284.0056152,0.2146260291,
282.9850464,0.2333033085,
282.00354,0.2365679145,
280.9826965,0.2300881147,
280.0010071,0.2357324362,
279.0192261,0.2593337893,
277.9980469,0.2888902128,
277.0160522,0.3010130525,
275.9946289,0.2776245177,
275.0124207,0.2262785882,
273.9907837,0.1894241869,
273.0083313,0.1795670688,
271.9865723,0.1781420112,
271.0039063,0.1740481108,
269.981842,0.1673426777,
268.9989624,0.1783580035,
268.0160522,0.1813783646,
266.9936829,0.1985129416,
266.0105286,0.2080447525,
264.987915,0.21445629,
264.0045776,0.1985714585,
262.981781,0.0777189061,
261.99823,0.1695123017,
261.0145569,0.2773805559,
259.9914551,-0.01362478826,
259.0075989,0.03495662659,
257.984314,0.2427408695,
257.0002441,0.316215694,
256.0160828,0.01506874338,
254.9924622,0.2173503041,
254.0081024,0.2028240561,
252.9842682,0.1030709073,
251.9997101,0.1348998547,
251.0150604,0.02690321207,
249.9909668,-0.01814440079,
249.0061493,0.1736445129,
247.981781,0.2775070667,
246.9967651,0.08263882995,
246.0116577,0.1856678724,
244.9870453,0.3390058577,
244.0017548,-0.05517759174,
243.0163574,0.2088359892,
241.9914246,0.2753894627,
241.0058441,0.130217284,
239.9807434,0.7268036008,
238.9950104,-0.4040644765,
238.0091248,0.1061513051,
236.9837341,0.07421508431,
235.9977112,-0.1406280845,
235.0115662,-0.7731753588,
233.9859161,10,
232.9996033,-0.3241432905,
232.0131989,10,
230.9872437,-0.6642791033,
230.0006866,10,
229.0140076,-0.04353106022,
227.9877625,-0.09220702201,
227.000946,0.134600088,
226.0140228,0.07046443969,
224.9875488,0.1516019106,
224.0004578,-0.06137929112,
223.0132599,-0.07417054474,
221.9865265,0.1311716139,
220.9991608,-0.01100192033,
220.011734,-0.007263713051,
218.9847107,-0.06283775717,
217.9971008,0.1700163484,
217.0094147,-0.03767285496,
215.982132,0.2005240023,
214.9942932,0.09331683069,
214.0063477,0.01260258351,
213.0183411,-0.161712572,
211.9907074,-0.1922670454,
211.0025482,0.02488000691,
210.014267,0.2159678787,
208.9864197,0.1966125518,
207.9980011,0.1114708707,
207.0095215,0.2408066541,
205.9813843,-0.04483969882,
204.9927368,0.2709094286,
204.0039978,0.1040904298,
203.015213,0.03595684096,
201.9867554,0.02394048311,
200.9978027,-0.5059759617,
200.0087738,-0.03014036454,

sample5,
sample5
Collection Time: 31/05/2023 4:14:06 PM
Operator Name  :
Scan Version 5.0.0.999
Parameter List :
Instrument  Cary 60
Instrument Version  2.00
Start (nm)  450.0
Stop (nm)  200.0
X Mode  Nanometers
Y Mode  Abs
UV-Vis Scan Rate (nm/min)  600.000
UV-Vis Data Interval (nm)  1.00
UV-Vis Ave. Time (sec)  0.1000
Beam Mode  Dual Beam
Baseline Correction  On
Baseline Type  Baseline correction
Baseline File Name
Baseline Std Ref File Name
Cycle Mode  Off
Method Log     :
Method Name    :
Date/Time stamp: 31/05/2023 3:45:08 PM
Method Modifications:
UVVIS SAT Changed: 31/05/2023 3:53:20 PM, Old:0.0125, New:0.1000
Common SAT Changed: 31/05/2023 3:53:20 PM, Old:0.0125, New:0.1000
Common Interval nm Changed: 31/05/2023 3:53:26 PM, Old:     5.00, New:     1.00
Baseline Correction Changed: 31/05/2023 3:53:26 PM, Old:0, New:1
Storage Changed: 31/05/2023 3:53:26 PM, Old:1, New:0
X Start nm Changed: 31/05/2023 3:59:18 PM, Old:  800.0, New:  450.0
End Method Modifications
<Current Wavelength> , 210.0

