sample2,,
Wavelength (nm),Abs,
450.0085144,-0.001679182169,
449.0126953,-0.001845882973,
448.0167236,-0.002071726602,
446.9822998,-0.002085432177,
445.9859009,-0.002161835553,
444.9893494,-0.001989174867,
443.9926453,-0.002178680617,
442.9957581,-0.002149883891,
441.9986877,-0.002073633019,
441.0014038,-0.002264595591,
440.0039978,-0.002107896144,
439.0063171,-0.002044880996,
438.0085754,-0.002147153486,
437.0106201,-0.002282569651,
436.0124817,-0.002169871703,
435.0140991,-0.002057917649,
434.0155945,-0.002155293012,
433.0169373,-0.002232817234,
432.0180969,-0.002196452115,
431.019043,-0.002222876297,
429.9814148,-0.002088575158,
428.9819946,-0.002279994544,
427.9824524,-0.002080485923,
426.982666,-0.002309194533,
425.9827881,-0.002165647689,
424.9826965,-0.002160805278,
423.9824829,-0.002322944114,
422.9819946,-0.002267016098,
421.9813843,-0.002155602211,
421.019104,-0.002152253641,
420.018158,-0.002319596941,
419.0170288,-0.002343387343,
418.0158081,-0.002411198802,
417.0143433,-0.002338340972,
416.0126953,-0.002369545167,
415.0108948,-0.002087596338,
414.0089111,-0.002437609946,
413.0068054,-0.002329689916,
412.0044861,-0.002049363917,
411.0019836,-0.002208711579,
409.9993896,-0.002127988962,
408.9966125,-0.00205018837,
407.9936218,-0.00190593733,
406.990509,-0.001705586328,
405.9872131,-0.001196043566,
404.9837036,-0.001072218176,
404.0187073,-0.001095199259,
403.0149231,-0.0009248520946,
402.0109558,-0.0008893589838,
401.0068359,-0.0008266835357,
400.0025635,-0.0006097558071,
398.9981384,-0.0002869288146,
397.9934998,-0.0002075558587,
396.988739,0.0005914568901,
395.9837952,0.0003299125237,
395.017395,0.0007266312605,
394.0121155,0.0006313774502,
393.0067444,0.001412640209,
392.0011597,0.001875547809,
390.9954224,0.002265224699,
389.9895325,0.003124126932,
388.9835205,0.003832817543,
388.0160217,0.005029402208,
387.0096741,0.006434983108,
386.0031433,0.007784799207,
384.9964905,0.008956477046,
383.9896545,0.01044775918,
382.9826965,0.01207793225,
382.0142822,0.01354919747,
381.006958,0.01476828661,
379.9995422,0.01621888205,
378.9919434,0.01741168089,
377.9841919,0.0191166196,
377.0150757,0.02071960457,
376.007019,0.02377043478,
374.9988098,0.02653680556,
373.990448,0.0292393323,
372.9819336,0.03244743496,
372.0120544,0.03638780117,
371.0032654,0.04134745523,
369.9942932,0.04730025306,
368.985199,0.054630436,
368.01474,0.06369832903,
367.0053711,0.07438660413,
365.9958191,0.08699372411,
364.986084,0.1009778529,
364.0150757,0.1148539037,
363.0050964,0.1322175413,
361.9949341,0.1495872885,
360.9846497,0.1717409343,
360.0130615,0.1978201121,
359.0025024,0.2205137759,
357.9917603,0.2294508964,
356.980896,0.2237700969,
356.0087891,0.2058824301,
354.9976196,0.1872199774,
353.9863281,0.1745126545,
353.0138245,0.1690359116,
352.0021973,0.1676590294,
350.990448,0.1668996066,
350.0175171,0.165187791,
349.0055237,0.163264662,
347.9933777,0.1645469218,
346.9811096,0.1685311198,
346.0075989,0.1750205755,
344.9950256,0.1831767708,
343.9823303,0.1918395907,
343.0084534,0.1997832954,
341.9954529,0.2089570612,
340.9823608,0.2134812474,
340.0080566,0.2112669647,
338.9946594,0.1996523887,
337.9811096,0.1845174581,
337.0064392,0.1695389897,
335.9926453,0.1569185704,
335.0177002,0.1501270235,
334.0036316,0.1450863481,
332.9894409,0.1410312653,
332.0141296,0.1365563273,
330.9996643,0.1329660863,
329.9850464,0.1324989349,
329.0093384,0.1334175467,
327.9944763,0.1360823363,
327.0185242,0.1405181736,
326.0033875,0.1460172534,
324.9881287,0.1535095721,
324.0117798,0.1601053625,
322.9962463,0.1648139507,
321.9806213,0.1642367989,
321.0039063,0.15590325,
319.9879761,0.1414663196,
319.0110168,0.1283174306,
317.994873,0.1188632324,
317.0176697,0.1105372459,
316.0012512,0.1048801467,
314.9847107,0.09980817139,
314.0071106,0.09536390752,
312.9903259,0.09216792136,
312.0125122,0.09005127847,
310.9954834,0.09005347639,
310.0174255,0.09161815047,
309.0001221,0.09380549192,
307.982666,0.09388122708,
307.0042725,0.09048277885,
305.9866333,0.08325817436,
305.0079956,0.07523822039,
303.9900513,0.06895566732,
303.0112,0.06467481703,
301.9930725,0.06082826108,
301.0139465,0.05651712045,
299.9955444,0.05286864191,
299.0162048,0.05036938563,
297.9975891,0.04880375043,
297.0180054,0.04859765992,
295.999115,0.05066369474,
295.0193481,0.05394709855,
294.0002441,0.05909985676,
292.9809875,0.0673660785,
292.0008545,0.07909615338,
290.9813843,0.1011788398,
290.0010376,0.1629142761,
288.9813538,0.3604911566,
288.0007324,0.7265393138,
286.980835,1.190065026,
286.0000305,0.9750478268,
285.019104,0.5234514475,
283.9988403,0.3681600988,
283.0177307,0.4146640599,
281.9972229,0.4843197465,
281.0158691,0.4819988608,
279.9951782,0.4417902827,
279.0136108,0.4468201995,
277.9926453,0.5016510487,
277.0108643,0.5744467378,
275.9897156,0.6473813057,
275.0077209,0.5596283674,
273.9863586,0.4021522105,
273.0041504,0.3293387592,
271.9825134,0.3170906603,
271.0001221,0.3170346022,
270.0175781,0.2929947078,
268.995697,0.2666682005,
268.01297,0.2558234334,
266.9908447,0.2536275983,
266.0079041,0.2569467723,
264.9855652,0.264110297,
264.0024414,0.2825976014,
263.0191956,0.3280252516,
261.996521,0.3601917028,
261.0131226,0.3376398087,
259.9902649,0.3229661286,
259.0066223,0.3228164017,
257.9835205,0.3216905892,
256.9996948,0.3081954122,
256.0157776,0.3062515557,
254.9924011,0.334717989,
254.0083008,0.3732461333,
252.9846954,0.3924387693,
252.0003662,0.3875572383,
251.0159607,0.3874486387,
249.9920502,0.3977836072,
249.007431,0.4048077166,
247.9833679,0.4156944752,
246.9985809,0.4299784601,
246.0136719,0.4506357312,
244.9892731,0.4671142101,
244.0042267,0.4824085534,
243.0190582,0.4965379536,
241.9943848,0.5191995502,
241.0090485,0.5597337484,
239.9841614,0.6218409538,
238.9986267,0.7251113653,
238.0129852,0.8878030181,
236.987854,1.142335296,
236.0020294,1.318146467,
235.0161285,1.311043501,
233.9906921,1.166501284,
233.0045929,1.030211449,
232.0184631,0.9525029659,
230.9927521,0.9211488962,
230.0063934,0.9042816162,
228.980484,0.8857605457,
227.993988,0.8397545218,
227.0073547,0.7536671758,
225.9811859,0.6838260889,
224.9944153,0.6491121054,
224.0075531,0.6453347802,
222.9811249,0.649502039,
221.9940796,0.6529570818,
221.0069427,0.6650438905,
220.0197601,0.6930491328,
218.9929657,0.7361904979,
218.0056,0.7769443393,
217.0181427,0.8177520037,
215.9911041,0.8603672385,
215.0034637,0.9145847559,
214.0157776,0.9605951309,
212.9884644,1.002616525,
212.0005798,1.023980975,
211.0126495,1.0335778,
209.9850769,1.049917698,
208.9970093,1.054039478,
208.0088043,1.039034009,
206.9810181,1.0108428,
205.9926453,0.9784008265,
205.0042419,0.9545811415,
204.0157166,0.9498409033,
202.9876251,0.9522465467,
201.9989624,0.9644184709,
201.0102234,0.9719163775,
199.9818573,0.9601996541,

sample2,
sample2
Collection Time: 23/05/2023 3:14:37 PM
Operator Name  :
Scan Version 5.0.0.999
Parameter List :
Instrument  Cary 60
Instrument Version  2.00
Start (nm)  450.0
Stop (nm)  200.0
X Mode  Nanometers
Y Mode  Abs
UV-Vis Scan Rate (nm/min)  600.000
UV-Vis Data Interval (nm)  1.00
UV-Vis Ave. Time (sec)  0.1000
Beam Mode  Dual Beam
Baseline Correction  On
Baseline Type  Baseline correction
Baseline File Name
Baseline Std Ref File Name
Cycle Mode  Off
Method Log     :
Method Name    :
Date/Time stamp: 23/05/2023 2:59:24 PM
Method Modifications:
UVVIS SAT Changed: 23/05/2023 2:59:51 PM, Old:0.0125, New:0.1000
Common SAT Changed: 23/05/2023 2:59:51 PM, Old:0.0125, New:0.1000
Common Interval nm Changed: 23/05/2023 3:00:04 PM, Old:     5.00, New:     1.00
Baseline Correction Changed: 23/05/2023 3:00:04 PM, Old:0, New:1
Storage Changed: 23/05/2023 3:00:04 PM, Old:1, New:0
X Start nm Changed: 23/05/2023 3:13:12 PM, Old:  800.0, New:  450.0
End Method Modifications
<Current Wavelength> , 206.0

