Sample 3,,
Wavelength (nm),Intensity (a.u.),
410,0.3208673,
411.0599976,0.1319013983,
411.9599915,0.07497937977,
413.0299988,0.1108708903,
413.9299927,0.08890409023,
415,0,
416.0599976,0.1190334484,
416.9599915,0.1457422525,
418.0299988,0.1301048994,
418.9299927,0.1787064373,
420,0.1366848499,
421.0599976,0.1787223965,
421.9599915,0.2139982581,
423.0299988,0.1382666975,
423.9299927,0.1475050449,
425,0.1417876631,
426.0599976,0.1634997427,
426.9599915,0.1986139566,
428.0299988,0.08285462111,
428.9299927,0.09792195261,
430,0.1255168915,
431.0400085,0.02176420577,
431.9400024,0.04316422716,
432.980011,0.02163581178,
434.019989,-0.01467588264,
435.0700073,0.03484417498,
435.9700012,0.05063511059,
437.0100098,0.05052036047,
438.0499878,0.02135231346,
438.9500122,0.01410516817,
440,0.02127403021,
441.0599976,0.07870804518,
441.9599915,-0.04250526056,
443.0299988,0.05088318884,
443.9299927,0.02139403485,
445,0.05825596303,
446.0599976,0.1273299605,
446.9599915,0.07912814617,
448.0299988,0.08598637581,
448.9299927,0.150913775,
450,0.1151899546,
451.0599976,0.1676849276,
451.9599915,0.3317249715,
453.0299988,0.36939165,
453.9299927,0.3575744927,
455,0.3971546888,
456.0599976,0.5409356952,
456.9599915,0.3464244008,
458.0299988,0.4133794904,
458.9299927,0.2608830333,
460,0.315613538,
461.0400085,0.1800750643,
461.9400024,0.2290049046,
462.980011,0.1566326767,
464.019989,0.1063075811,
465.0700073,0.1453267038,
465.9700012,0.1249540076,
467.0100098,0.04989664257,
468.0499878,0.127203092,
468.9500122,0.06326489151,
470,0.02868041396,
471.0400085,0.01405491307,
471.9400024,-0.01387992501,
472.980011,0.006849315017,
474.019989,0.006915437989,
475.0700073,0.0492406413,
475.9700012,0.04872547835,
477.0100098,0.09094343334,
478.0499878,0.0136728771,
478.9500122,-0.01401738171,
480,0.09207385778,
481.0400085,0.07650098205,
481.9400024,0.03456380218,
482.980011,0.06274006516,
484.019989,0.06280355155,
485.0700073,0.04818912223,
485.9700012,0.08944051713,
487.0100098,0,
488.0499878,0.006963303313,
488.9500122,0.04810467735,
490,0.01413947251,
491.0400085,-0.04851542786,
491.9400024,0.04845967516,
492.980011,0.04906564951,
494.019989,-0.02074703202,
495.0700073,-0.07477906346,
495.9700012,0.08313588798,
497.0100098,0.02818866633,
498.0499878,-0.03575029224,
498.9500122,0.05750390142,
500,0,
501.0400085,0.06379494816,
501.9400024,0.0573521927,
502.980011,0.007152718026,
504.019989,0.06249435619,
505.0700073,0.0284709651,
505.9700012,0.02082205564,
507.0100098,-0.04141844437,
508.0499878,0.03541427478,
508.9500122,-0.01384936087,
510,0.04232296348,
511.0400085,0.02921968699,
511.9400024,-0.04328161106,
512.9799805,0.02121745795,
514.0200195,0.01420848072,
515.0700073,0.05639879778,
515.9699707,0.07683227211,
517.0100098,0.0352053158,
518.0499878,0.04301105812,
518.9500122,-0.02185091749,
520,0.01429531258,
521.0200195,0.03540249169,
522.0499878,0.09231118858,
522.9400024,0.0348796621,
523.9699707,-0.02086811326,
525,0.05488775298,
526.0200195,0.006948835682,
527.0499878,0.05708739907,
527.9400024,0.006869028322,
528.9699707,0.02088220417,
530,0.03557857871,
531.039978,0.007154099643,
531.9400024,0,
532.9799805,-0.01409115642,
534.0200195,0.0354433991,
535.0700073,0.05671667308,
535.9699707,-0.0626039058,
537.0100098,-0.03507738188,
538.0499878,-0.01438507345,
538.9500122,-0.04964151606,
540,0.02128625847,
541.0200195,0,
542.0499878,0.01385818888,
542.9400024,-0.0212839935,
543.9699707,-0.007117387373,
545,0.04241301864,
546.0200195,-0.006970729679,
547.0499878,-0.00718194712,
547.9400024,-0.01392253488,
548.9699707,0.04839133471,
550,0.02117507532,
551.0200195,0.03520407528,
552.0499878,-0.02796127461,
552.9400024,0.04888029024,
553.9699707,0.01425659005,
555,-0.01398963388,
556.0200195,-0.0688951984,
557.0499878,-0.0491441898,
557.9400024,-0.07774180919,
558.9699707,-0.007230605464,
560,-0.04173419625,
561.0200195,0.01398141868,
562.0499878,0.04322392866,
562.9400024,0.0783553943,
563.9699707,-0.02807293274,
565,0.02783460729,
566.0200195,0.007115563843,
567.0499878,-0.01397878025,
567.9400024,0.04278379679,
568.9699707,0.00718540512,
570,0.0140278032,
571.0100098,0.07105401158,
572.0200195,0,
573.039978,0.02108133212,
574.0499878,0.02811496146,
575.0700073,0,
575.9400024,0.04222170636,
576.9500122,0.01458002254,
577.9699707,-0.02864939533,
578.9799805,0.01408093702,
580,-0.01392515283,
581.0200195,0.0484244749,
582.0499878,-0.03488331661,
582.9400024,0.02086376026,
583.9699707,-0.01378958486,
585,0.04290679097,
586.0200195,0.006987045985,
587.0499878,-0.006935341749,
587.9400024,0,
588.9699707,-0.007006186526,
590,-0.0208944194,
591.0100098,0.02113033272,
592.0200195,0.01427877881,
593.039978,0.0208132416,
594.0499878,0.07678508013,
595.0700073,0.007046620362,
595.9400024,-0.007108330727,
596.9500122,0.05006938055,
597.9699707,0.02154166624,
598.9799805,0.01411442552,
600,-0.02802337147,
601.0100098,0.007179987617,
602.0200195,0.02870799601,
603.039978,-0.09336263686,
604.0499878,0.007040716242,
605.0700073,0.01455127448,
605.9400024,0.03680394217,
606.9500122,-0.03677092493,
607.9699707,0.01470274758,
608.9799805,-0.01475372352,
610,-0.0146614667,
611.0100098,0.02176673338,
612.0200195,-0.0217668917,
613.039978,0.007240081206,
614.0499878,0.01455191057,
615.0700073,0.007231965195,
615.9400024,0.01460547,
616.9500122,0.02204277739,
617.9699707,0.05288287252,
618.9799805,0.07490076125,
620,0.03843640536,
621.0100098,0.04489169642,
622.0200195,0.03623871133,
623.039978,-0.007221102715,
624.0499878,-0.01479826309,
625.0700073,-0.007248215377,
625.9400024,0.08487463742,
626.9500122,0,
627.9699707,0.02133469842,
628.9799805,-0.007097786292,
630,0.06376828253,
631,-0.02136493474,
632,-0.00700265402,
633,-0.04444148019,
634,-0.01417675614,
635,-0.01485961396,
636,-0.01442803629,
637,-0.007129768841,
638,0.01422151364,
639,0.02112928964,
640,0.007230762392,
641.0100098,0.07097231597,
642.0200195,-0.07760360092,
643.039978,0.03557706252,
644.0499878,-0.03465723991,
645.0700073,0.02062663808,
645.9400024,-0.07391092181,
646.9500122,0.02133803628,
647.9699707,0.08234123141,
648.9799805,0.02782086097,
650,0,
651,-0.0285867434,
652,-0.01419134159,
653,0.02883443981,
654,0,
655,0.04837093875,
656,-0.02822427079,
657,0.04100096971,
658,-0.021195421,
659,-0.01393922511,
660,0.09881284088,
661,0.08522061259,
662,-0.006945360918,
663,0.1067228317,
664,0,
665,-0.02106401324,
666,-0.01422131248,
667,0.0136896288,
668,0,
669,0.00710353395,
670,0.04257251695,
670.9799805,0.08484043181,
671.9699707,0.02794681676,
672.9500122,-0.06997460127,
673.9400024,0.01459044591,
675.0700073,0.06507356465,
676.0499878,-0.02840001509,
677.039978,0,
678.0200195,0.06318538636,
679.0100098,0.04894557595,
680,-0.0278588403,
681,-0.02901599556,
682,0.02826915123,
683,0.02124540508,
684,0.06354316324,
685,0.01425709762,
686,0.07243962586,
687,-0.02826036327,
688,-0.04367734119,
689,0.02194923908,
690,0.04914798588,
690.9799805,0.007228985429,
691.9699707,0.007448400836,
692.9500122,-0.02094533108,
693.9400024,-0.007043096703,
695.0700073,0.03536343202,
696.0499878,0.03485996649,
697.039978,0.02101723477,
698.0200195,-0.0570182316,
699.0100098,-0.02108177543,
700,0.02757783793,

Sample 3,
Sample 3
Collection Time: 16/06/2023 9:41:21 AM
Operator Name  :
Scan Software Version: 1.2(147)
Parameter List :
Instrument                        Cary Eclipse
Instrument Serial Number          test
Data mode                         Fluorescence
Scan mode                         Emission
X Mode                            Wavelength (nm)
Start (nm)                        410.00
Stop (nm)                         700.00
Ex. Wavelength (nm)               400.00
Ex. Slit (nm)                     5
Em. Slit (nm)                     5
Scan rate (nm/min)                600.00
Data interval (nm)                1.0000
Averaging Time (s)                0.1000
Excitation filter                 Auto
Emission filter                   Open
PMT voltage (V)                   Medium
Corrected spectra                 OFF
Method Log     :
Method Name    : Default
Date/Time stamp: 16/06/2023 9:32:18 AM
Method Modifications:
Overlayed Graphs Changed: 16/06/2023 9:39:02 AM, Old:OFF, New:ON
User Delta Stop Changed: 16/06/2023 9:39:03 AM, Old: 450.00, New: 458.00
User Delta Increment Changed: 16/06/2023 9:39:03 AM, Old:  10.00, New:   0.15
Excitation Wavelength Changed: 16/06/2023 9:39:03 AM, Old: 350.00, New: 458.00
Emission Wavelength Changed: 16/06/2023 9:39:03 AM, Old: 400.00, New: 468.00
Stop Wavelength Changed: 16/06/2023 9:39:03 AM, Old: 600.00, New: 700.00
Excitation Wavelength Changed: 16/06/2023 9:39:45 AM, Old: 458.00, New: 400.00
Emission Wavelength Changed: 16/06/2023 9:39:45 AM, Old: 468.00, New: 410.00
End Method Modifications

