Sample 2,,
Wavelength (nm),Intensity (a.u.),
500,0.1630147249,
501.0400085,0.1419439614,
501.9400024,0.1288865358,
502.980011,0.1435175389,
504.019989,0.1459590197,
505.0700073,0.1582330465,
505.9700012,0.1462684721,
507.0100098,0.1532282978,
508.0499878,0.1794246137,
508.9500122,0.1792266667,
510,0.1734178662,
511.0400085,0.182952106,
511.9400024,0.198822692,
512.9799805,0.1748329848,
514.0200195,0.1788671315,
515.0700073,0.2080209702,
515.9699707,0.2006687671,
517.0100098,0.192985177,
518.0499878,0.2145462334,
518.9500122,0.1619552821,
520,0.1722621173,
521.0200195,0.1602157056,
522.0499878,0.135269627,
522.9400024,0.1430664212,
523.9699707,0.1340924203,
525,0.1374432743,
526.0200195,0.1147910133,
527.0499878,0.1118139923,
527.9400024,0.09753785282,
528.9699707,0.104929924,
530,0.1305035204,
531.039978,0.1181666851,
531.9400024,0.1230969056,
532.9799805,0.1193036363,
534.0200195,0.1067241281,
535.0700073,0.07537484169,
535.9699707,0.07791662961,
537.0100098,0.03252994269,
538.0499878,0.05507092923,
538.9500122,0.06691073626,
540,0.07228238881,
541.0200195,0.0676330924,
542.0499878,0.08451820165,
542.9400024,0.05689008534,
543.9699707,0.07310518622,
545,0.03665198758,
546.0200195,0.03635177389,
547.0499878,0.05152569339,
547.9400024,0.05369122326,
548.9699707,0.04276747629,
550,0.05620415136,
551.0200195,0.04011243582,
552.0499878,0.05436380208,
552.9400024,0.02918083407,
553.9699707,0.05437113717,
555,0.03140552342,
556.0200195,0.03913792223,
557.0499878,0.03470259905,
557.9400024,0.03644288704,
558.9699707,0.04444018006,
560,0.02971082553,
561.0200195,0.02770820446,
562.0499878,0.02753322944,
562.9400024,0.05103014782,
563.9699707,0.04830789194,
565,0.03062820621,
566.0200195,0.02972335368,
567.0499878,0.05293719843,
567.9400024,0.03018412367,
568.9699707,0.07199662179,
570,0.08240970224,
571.0100098,0.07866923511,
572.0200195,0.06592584401,
573.039978,0.1282887012,
574.0499878,0.1095816866,
575.0700073,0.1196155846,
575.9400024,0.1214535311,
576.9500122,0.1121807247,
577.9699707,0.120846875,
578.9799805,0.08430150896,
580,0.1008963957,
581.0200195,0.07971208543,
582.0499878,0.06228946522,
582.9400024,0.04314825684,
583.9699707,0.05032221228,
585,0.04938364029,
586.0200195,0.02396856993,
587.0499878,0.02208117023,
587.9400024,0.02478319965,
588.9699707,0.03730733693,
590,0.02189104818,
591.0100098,0.03560757637,
592.0200195,0.03328875452,
593.039978,0.02094105259,
594.0499878,0.0009953269036,
595.0700073,0.01560265291,
595.9400024,0.01200782973,
596.9500122,0.03902947903,
597.9699707,0.02054981142,
598.9799805,0.04353698343,
600,0.04077974707,
601.0100098,0.0257872045,
602.0200195,0.01972863637,
603.039978,0.03806016594,
604.0499878,0.04749293998,
605.0700073,0.008234781213,
605.9400024,0.01841590554,
606.9500122,0.01630104892,
607.9699707,0.01120813563,
608.9799805,0.01093504578,
610,0.0173963476,
611.0100098,0.02432313561,
612.0200195,0.02652176097,
613.039978,0.01383082103,
614.0499878,0.01086392999,
615.0700073,0.02391407639,
615.9400024,0.02273612469,
616.9500122,0.004049197771,
617.9699707,0.01503144577,
618.9799805,0.02661317773,
620,0.02168072946,
621.0100098,0.01575201564,
622.0200195,0.02199107036,
623.039978,0.003002023324,
624.0499878,0.01877051219,
625.0700073,0.02751872502,
625.9400024,0.03603347391,
626.9500122,0.01902216114,
627.9699707,-0.007012496237,
628.9799805,-0.003011921188,
630,-0.01316338405,
631,0.02638407238,
632,0.01091786474,
633,0.01599139534,
634,-0.01461647823,
635,0,
636,-0.009161256254,
637,-0.00100150425,
638,0.007076632697,
639,0.02799226902,
640,0.02590621449,
641.0100098,0.0138158761,
642.0200195,0.02446789667,
643.039978,-0.004943144042,
644.0499878,0.0189728681,
645.0700073,0.01801994815,
645.9400024,0.01707742922,
646.9500122,0.0234063901,
647.9699707,-0.004010186065,
648.9799805,0.02138461359,
650,-0.001960936235,
651,0.01529606059,
652,0.0158339031,
653,0.0108088674,
654,0.00492788991,
655,0.03339747339,
656,-0.01223477256,
657,0.008711720817,
658,0.02398004755,
659,-0.006914939266,
660,0.02397207171,
661,0.00583426049,
662,0.01563087665,
663,-0.001005772152,
664,0.00503661111,
665,0.01369712967,
666,0.0101230666,
667,0.01191962603,
668,0.01180521399,
669,0.002958856989,
670,-0.006798030343,
670.9799805,-0.02727574855,
671.9699707,-0.0009979044553,
672.9500122,-0.001968384022,
673.9400024,0.01327966992,
675.0700073,0.0294546634,
676.0499878,0.007889857516,
677.039978,0.00888876617,
678.0200195,0.006775881164,
679.0100098,0.008023983799,
680,0,
681,-0.004918195773,
682,0.001950376551,
683,0.006910863798,
684,0.01535793114,
685,-0.005851899739,
686,0.02113309689,
687,-0.02778188325,
688,0.02603019401,
689,-0.0205452498,
690,-0.01096697804,
690.9799805,-0.003904412035,
691.9699707,0.00291364803,
692.9500122,0.002979190322,
693.9400024,0.022702327,
695.0700073,-0.006014537066,
696.0499878,-0.009062440135,
697.039978,0.02150928788,
698.0200195,0.03867743537,
699.0100098,0.01169499382,
700,0.01795640215,
700.9799805,-0.003017192008,
701.9699707,0.007876271382,
702.9500122,-0.009902941063,
703.9400024,0.02976792306,
705.0700073,0.00919322297,
706.0499878,0,
707.039978,0.01374906581,
708.0200195,0.005306385458,
709.0100098,0.01925676875,
710,0.002040830906,
710.9799805,0.00904563535,
711.9699707,-0.009698305279,
712.9500122,0.01259338483,
713.9400024,-0.01192156877,
715.0700073,0.01652240194,
716.0499878,-0.0009760229732,
717.039978,0.003871894442,
718.0200195,0.02185627259,
719.0100098,0.003929844126,
720,0.006810246501,
720.9699707,0.01573475823,
721.9400024,0,
723.0499878,0.008717162535,
724.0200195,0.002948544919,
725,0.001025372883,
725.9699707,0,
726.9400024,0.01938324422,
728.0499878,0.01866248995,
729.0200195,0.01218224689,
730,0.004871902987,
730.9799805,0.007108576596,
731.9699707,-0.004933706019,
732.9500122,0,
733.9400024,0.0009665795951,
735.0700073,0.0219020918,
736.0499878,0.003907180857,
737.039978,0.004956153221,
738.0200195,0.006702034269,
739.0100098,0.0009843808366,
740,0.02248016745,
740.9500122,0.002909652423,
742.0499878,-0.0009873871459,
743.0100098,0.009836623445,
743.9699707,0.01114063989,
745.0599976,0.01786419749,
746.0200195,-0.001006368315,
746.9799805,0.03002317809,
747.9400024,-0.01005086768,
749.039978,-0.01115461439,
750,-0.0009580323822,

Sample 2,
Sample 2
Collection Time: 17/08/2023 1:13:26 PM
Operator Name  :
Scan Software Version: 1.2(147)
Parameter List :
Instrument                        Cary Eclipse
Instrument Serial Number          test
Data mode                         Fluorescence
Scan mode                         Emission
X Mode                            Wavelength (nm)
Start (nm)                        500.00
Stop (nm)                         750.00
Ex. Wavelength (nm)               490.00
Ex. Slit (nm)                     5
Em. Slit (nm)                     5
Scan rate (nm/min)                120.00
Data interval (nm)                1.0000
Averaging Time (s)                0.5000
Excitation filter                 Auto
Emission filter                   Open
PMT voltage (V)                   Medium
Corrected spectra                 OFF
Method Log     :
Method Name    : Default
Date/Time stamp: 17/08/2023 12:57:35 PM
Method Modifications:
Overlayed Graphs Changed: 17/08/2023 1:10:34 PM, Old:OFF, New:ON
User Delta Stop Changed: 17/08/2023 1:10:34 PM, Old: 450.00, New: 490.00
User Delta Increment Changed: 17/08/2023 1:10:34 PM, Old:  10.00, New:   0.15
Scan Control Changed: 17/08/2023 1:10:34 PM, Old:Medium, New:Slow
Ave. time (s): Changed: 17/08/2023 1:10:34 PM, Old:0.10000, New:0.50000
Excitation Wavelength Changed: 17/08/2023 1:10:34 PM, Old: 350.00, New: 490.00
Emission Wavelength Changed: 17/08/2023 1:10:34 PM, Old: 400.00, New: 500.00
Stop Wavelength Changed: 17/08/2023 1:10:34 PM, Old: 600.00, New: 750.00
End Method Modifications

