Sample 5,,
Wavelength (nm),Intensity (a.u.),
362,0,
363.0700073,0.1367580891,
364,0,
365.0700073,0.07480923831,
366,0.01296882331,
367.0700073,0.06265350431,
368,0.111500673,
369.0700073,0.06347755343,
370,0.08916402608,
371.0599976,0.08673241735,
371.9599915,0.0127271805,
373.0299988,0.1372546554,
373.9299927,0.1262355298,
375,-0.03770501912,
376.0599976,0.1537870169,
376.9599915,-0.03787639737,
378.0299988,0.01260382403,
378.9299927,-0.03845463693,
380,0.02503442205,
381.0700073,0.02558657341,
382,0.1009820476,
383.0700073,0.0869262889,
384,0.09990134835,
385.0700073,-0.02536558174,
386,0.05063355342,
387.0700073,0.06225797534,
388,0.1384083033,
389.0700073,0.1771591157,
390,0.1154423356,
391.0599976,0.1833732873,
391.9599915,0.1523577422,
393.0299988,0.2529916167,
393.9299927,0.2678571343,
395,0.2039957643,
396.0599976,0.3643719554,
396.9599915,0.3346418738,
398.0299988,0.2395058572,
398.9299927,0.1534389406,
400,0.02536268532,
401.0599976,0.02558558993,
401.9599915,0.1128300279,
403.0299988,-0.02517401427,
403.9299927,0.06326871365,
405,-0.07637668401,
406.0599976,-0.06297942996,
406.9599915,0.1665769666,
408.0299988,0.02496349066,
408.9299927,0.08930622041,
410,0.03823117167,
411.0599976,0.07524926215,
411.9599915,-0.05013787746,
413.0299988,0.06244146079,
413.9299927,0.1153890565,
415,0.05102171004,
416.0599976,-0.02546019293,
416.9599915,0.01279754285,
418.0299988,0.05046045035,
418.9299927,-0.03822776303,
420,0.05119475722,
421.0599976,-0.03789888322,
421.9599915,0.1293443441,
423.0299988,-0.02571057715,
423.9299927,0.08914812654,
425,0.08821898699,
426.0599976,0.05024557561,
426.9599915,0.03765391186,
428.0299988,0.07464914769,
428.9299927,-0.01257403009,
430,0.02488893457,
431.0400085,0.04895781353,
431.9400024,0.01234217454,
432.980011,-0.02539424598,
434.019989,0.07673419267,
435.0700073,-0.01236017607,
435.9700012,0.01274096314,
437.0100098,0,
438.0499878,0.03812815994,
438.9500122,0.05068680644,
440,0.03831613436,
441.0599976,0.01265646517,
441.9599915,0.03815822676,
443.0299988,0.09184663743,
443.9299927,-0.01284983661,
445,0.01272685546,
446.0599976,0,
446.9599915,0.02688822523,
448.0299988,0.1192653254,
448.9299927,0.09129204601,
450,-0.02578648925,
451.0599976,0.1150983423,
451.9599915,0.02538522147,
453.0299988,0.09005416185,
453.9299927,-0.08035893738,
455,-0.04115734622,
456.0599976,0.05274678767,
456.9599915,-0.03843394294,
458.0299988,0.01356612891,
458.9299927,0,
460,-0.09074410051,
461.0400085,0.03885708377,
461.9400024,0.0127542885,
462.980011,-0.171691969,
464.019989,0.1060108095,
465.0700073,0.01299916767,
465.9700012,0,
467.0100098,0.09570162743,
468.0499878,0.01381329913,
468.9500122,0.0654887408,
470,0.0134774521,
471.0400085,0.04068789631,
471.9400024,0.1401238143,
472.980011,-0.08257183433,
474.019989,-0.03990900517,
475.0700073,-0.03906962276,
475.9700012,-0.0261502862,
477.0100098,0.1320079714,
478.0499878,-0.02558624558,
478.9500122,0.06576437503,
480,0.0817650333,
481.0400085,-0.1042915955,
481.9400024,0,
482.980011,0.027035065,
484.019989,0.06621814519,
485.0700073,0.02626533248,
485.9700012,0,
487.0100098,-0.0663825497,
488.0499878,0.06386430562,
488.9500122,0.03931023553,
490,0,
491.0400085,0.03996110708,
491.9400024,0.01305431966,
492.980011,0,
494.019989,-0.01281131525,
495.0700073,0.05216347799,
495.9700012,-0.03764162958,
497.0100098,0.02562394366,
498.0499878,-0.03857726976,
498.9500122,-0.1257592738,
500,0,
501.0400085,-0.01285016723,
501.9400024,0.01261909213,
502.980011,0.06324390322,
504.019989,-0.1285082698,
505.0700073,-0.02515217103,
505.9700012,0,
507.0100098,-0.03825896233,
508.0499878,-0.05052865669,
508.9500122,0.03749671951,
510,0.03815919906,
511.0400085,-0.05471207574,
511.9400024,-0.05106404424,
512.9799805,0,
514.0200195,0.04110884294,
515.0700073,-0.1008077264,
515.9699707,0.0254013408,
517.0100098,0.05564365536,
518.0499878,0.0400849767,
518.9500122,0.06244691834,
520,0.05150258914,
521.0200195,0.06445043534,
522.0499878,0.04018269852,
522.9400024,-0.05092168227,
523.9699707,0.02723942138,
525,0.0649831742,
526.0200195,0.05152248964,
527.0499878,0.01267491374,
527.9400024,-0.06777822971,
528.9699707,0.09225943685,
530,-0.1083174199,
531.039978,0.1014790535,
531.9400024,0.09321278334,
532.9799805,0.03806237131,
534.0200195,0.06472659111,
535.0700073,-0.02594471164,
535.9699707,0.06299133599,
537.0100098,0.1020694599,
538.0499878,0.05041402578,
538.9500122,0.0129636107,
540,-0.051034078,
541.0200195,-0.05113062263,
542.0499878,0.09284435213,
542.9400024,-0.06610871106,
543.9699707,-0.07615373284,
545,0.09152719378,
546.0200195,-0.02561606653,
547.0499878,0.03927883878,
547.9400024,-0.122443974,
548.9699707,0.1153239906,
550,-0.05104449764,
551.0200195,0.09125752747,
552.0499878,-0.03868272156,
552.9400024,-0.02557446808,
553.9699707,0,
555,-0.02580745146,
556.0200195,-0.06392308325,
557.0499878,0.06343728304,
557.9400024,-0.05116136,
558.9699707,0.129624337,
560,-0.05063483492,
561.0200195,0.1051193103,
562.0499878,-0.09378097951,
562.9400024,0.01291539147,
563.9699707,0.01274080109,
565,0.0512656197,
566.0200195,-0.05136502534,
567.0499878,0.02545014955,
567.9400024,0.1162085012,
568.9699707,0.07888820022,
570,0.03817619756,
571.0100098,-0.01260763779,
572.0200195,-0.05028916523,
573.039978,-0.01273447368,
574.0499878,0.1019718871,
575.0700073,0.02543979138,
575.9400024,0.0632263124,
576.9500122,0.06298021972,
577.9699707,-0.1042073742,
578.9799805,0.02525635064,
580,0.1310787797,
581.0200195,-0.1158032864,
582.0499878,0.09131585807,
582.9400024,-0.0875864923,
583.9699707,0.07442321628,
585,0,
586.0200195,0.1014070213,
587.0499878,0.08981037885,
587.9400024,-0.03779622912,
588.9699707,0.0254084412,
590,-0.04975433648,
591.0100098,0.07473003864,
592.0200195,0.08735585958,
593.039978,0.05271480978,
594.0499878,0.03759021685,
595.0700073,0,
595.9400024,0.1247489452,
596.9500122,-0.02594168298,
597.9699707,-0.05240266025,
598.9799805,0.1306608766,
600,0.105723612,
601.0100098,0.135011062,
602.0200195,-0.1354683191,
603.039978,0.0260868445,
604.0499878,-0.101419881,
605.0700073,0.06555915624,
605.9400024,0.063920632,
606.9500122,0.10221944,
607.9699707,0.01297572255,
608.9799805,0.03929684684,
610,0.01269293297,
611.0100098,0.06561248749,
612.0200195,0.01341111772,
613.039978,-0.03967781737,
614.0499878,0.02723682299,
615.0700073,-0.0530166477,
615.9400024,-0.05399422348,
616.9500122,0.1529636681,
617.9699707,0.07160041481,
618.9799805,0.02819919959,
620,0.0129609229,
621.0100098,0.01453256048,
622.0200195,-0.1075514555,
623.039978,0.09081473947,
624.0499878,0,
625.0700073,-0.05197640508,
625.9400024,-0.02624844015,
626.9500122,-0.06340189278,
627.9699707,0,
628.9799805,0,
630,-0.07797372341,
631,-0.05295628682,
632,0.1244985461,
633,0.02630333044,
634,0.06520350277,
635,-0.07787252218,
636,-0.0654913187,
637,-0.07554296404,
638,-0.01306386944,
639,0.08793748915,
640,-0.1030277237,
641.0100098,-0.01331753004,
642.0200195,-0.06308113039,
643.039978,0.1149073094,
644.0499878,0,
645.0700073,0.06469979137,
645.9400024,-0.09079235792,
646.9500122,0.1086794063,
647.9699707,0.0546224229,
648.9799805,0.09584315121,
650,0.05446178094,
651,0.02686222456,
652,0,
653,-0.06698103249,
654,0.03829656914,
655,0.0790066272,
656,0.1150292084,
657,-0.01372759044,
658,-0.03980152309,
659,0.02536815591,
660,-0.09079235792,
661,-0.02551801689,
662,0.01313559897,
663,-0.02628051862,
664,0,
665,0,
666,0.04057508335,
667,0,
668,0.02604031004,
669,-0.06545444578,
670,0.01300018188,
670.9799805,-0.0136731565,
671.9699707,-0.05279761553,
672.9500122,0.08297836781,
673.9400024,0.1556844264,
675.0700073,0.02766022272,
676.0499878,-0.02645817585,
677.039978,0.05457398295,
678.0200195,0.05426156893,
679.0100098,-0.01375761814,
680,0.01332995668,
681,0.0635606721,
682,0.04051809013,
683,-0.06493254006,
684,-0.02580512129,
685,0.08798059821,
686,-0.04043453559,
687,-0.03972878307,
688,0,
689,0.03952152655,
690,0.02661521174,
690.9799805,-0.03829950094,
691.9699707,-0.01304563414,
692.9500122,-0.02579214238,
693.9400024,0.05192310363,
695.0700073,0.04224638268,
696.0499878,0.01296529174,
697.039978,0.07918283343,
698.0200195,0,
699.0100098,0.1901812255,
700,0.08784369379,

Sample 5,
Sample 5
Collection Time: 14/04/2023 4:24:39 PM
Operator Name  :
Scan Software Version: 1.2(147)
Parameter List :
Instrument                        Cary Eclipse
Instrument Serial Number          test
Data mode                         Fluorescence
Scan mode                         Emission
X Mode                            Wavelength (nm)
Start (nm)                        362.00
Stop (nm)                         700.00
Ex. Wavelength (nm)               352.00
Ex. Slit (nm)                     5
Em. Slit (nm)                     2.5
Scan rate (nm/min)                600.00
Data interval (nm)                1.0000
Averaging Time (s)                0.1000
Excitation filter                 Auto
Emission filter                   Open
PMT voltage (V)                   Medium
Corrected spectra                 OFF
Method Log     :
Method Name    : Default
Date/Time stamp: 14/04/2023 4:20:32 PM
Method Modifications:
Overlayed Graphs Changed: 14/04/2023 4:21:18 PM, Old:OFF, New:ON
Excitation Wavelength Changed: 14/04/2023 4:21:19 PM, Old: 350.00, New: 354.00
Emission Wavelength Changed: 14/04/2023 4:21:19 PM, Old: 400.00, New: 364.00
Stop Wavelength Changed: 14/04/2023 4:21:19 PM, Old: 600.00, New: 700.00
Em. Slit Width (nm): Changed: 14/04/2023 4:21:31 PM, Old:5, New:2.5
Scan mode: Changed: 14/04/2023 4:22:14 PM, Old:Emission, New:Excitation
Excitation Wavelength Changed: 14/04/2023 4:22:14 PM, Old: 354.00, New: 220.00
Emission Wavelength Changed: 14/04/2023 4:22:14 PM, Old: 364.00, New: 403.00
Stop Wavelength Changed: 14/04/2023 4:22:14 PM, Old: 700.00, New: 403.00
Scan mode: Changed: 14/04/2023 4:23:02 PM, Old:Excitation, New:Emission
Excitation Wavelength Changed: 14/04/2023 4:23:02 PM, Old: 220.00, New: 352.00
Emission Wavelength Changed: 14/04/2023 4:23:02 PM, Old: 403.00, New: 362.00
Stop Wavelength Changed: 14/04/2023 4:23:02 PM, Old: 403.00, New: 700.00
End Method Modifications

