Sample 21,,
Wavelength (nm),Intensity (a.u.),
470,0.08095285296,
471.0400085,0.04512991011,
471.9400024,0.04928219691,
472.980011,0.01772440039,
474.019989,0.02579869144,
475.0700073,0.05584195629,
475.9700012,0.04375730827,
477.0100098,0.04559892789,
478.0499878,0.06154965982,
478.9500122,0.06365991384,
480,0.09170402586,
481.0400085,0.08260132372,
481.9400024,0.09927944094,
482.980011,0.09583245218,
484.019989,0.09454451501,
485.0700073,0.0790162012,
485.9700012,0.08343452215,
487.0100098,0.08029321581,
488.0499878,0.07424588501,
488.9500122,0.06898535043,
490,0.05462174863,
491.0400085,0.07715082914,
491.9400024,0.06307482719,
492.980011,0.07991979271,
494.019989,0.05388952047,
495.0700073,0.07361561805,
495.9700012,0.05546266586,
497.0100098,0.04425354302,
498.0499878,0.0425144136,
498.9500122,0.04757420719,
500,0.02809727006,
501.0400085,0.02868956886,
501.9400024,0.02532854676,
502.980011,0.0313225165,
504.019989,0.03503637016,
505.0700073,0.02762896381,
505.9700012,0.01320152916,
507.0100098,0.02145540901,
508.0499878,0.02746615,
508.9500122,0.02973297238,
510,0.02558431588,
511.0400085,0.03461175039,
511.9400024,0.04233158752,
512.9799805,0.02613029256,
514.0200195,0.0434974432,
515.0700073,0.04268862307,
515.9699707,0.02204241417,
517.0100098,0.03111074306,
518.0499878,0.04602963477,
518.9500122,0.03669142351,
520,0.01971578784,
521.0200195,0.03055726551,
522.0499878,0.03928038478,
522.9400024,0.03630011529,
523.9699707,0.05707543716,
525,0.0385286808,
526.0200195,0.06145991385,
527.0499878,0.06230175495,
527.9400024,0.0908780843,
528.9699707,0.147876814,
530,0.1716815084,
531.039978,0.2291930765,
531.9400024,0.2603586316,
532.9799805,0.2614589632,
534.0200195,0.2600649595,
535.0700073,0.2352779657,
535.9699707,0.1828374267,
537.0100098,0.1638902873,
538.0499878,0.1245773882,
538.9500122,0.08080241829,
540,0.05402267724,
541.0200195,0.05170215666,
542.0499878,0.03111791424,
542.9400024,0.03710073605,
543.9699707,0.03909773007,
545,0.03299744427,
546.0200195,0.01829103194,
547.0499878,0.01238912903,
547.9400024,0.02201349474,
548.9699707,0.002642359352,
550,0.01686286926,
551.0200195,0.01685105264,
552.0499878,0.0224846229,
552.9400024,0.001823787461,
553.9699707,-0.006250954233,
555,0.006261052098,
556.0200195,0.02577697486,
557.0499878,-0.0008886092692,
557.9400024,0.01514266245,
558.9699707,0.01073293388,
560,0.01349615119,
561.0200195,-0.005367364734,
562.0499878,0,
562.9400024,0.01262699161,
563.9699707,0.01599151455,
565,0.01861466095,
566.0200195,0.01150519866,
567.0499878,0.01605468616,
567.9400024,0.00631474331,
568.9699707,-0.0008906416479,
570,0.004394317977,
571.0100098,0.004456379451,
572.0200195,0.002674964955,
573.039978,0.0009043471655,
574.0499878,0.01180546451,
575.0700073,0.00630455697,
575.9400024,-0.0008973801159,
576.9500122,0.008121284656,
577.9699707,-0.007129692473,
578.9799805,0.0008871012833,
580,0.001785623492,
581.0200195,0.007962079719,
582.0499878,0.0118430201,
582.9400024,0.005394839216,
583.9699707,0.02032905258,
585,0.02472393773,
586.0200195,0.01713207364,
587.0499878,0.01913068257,
587.9400024,0,
588.9699707,0,
590,-0.0008965305169,
591.0100098,0.008151598275,
592.0200195,-0.009880073369,
593.039978,0.009980618954,
594.0499878,0.0008993040537,
595.0700073,-0.001803174498,
595.9400024,0.005474757403,
596.9500122,-0.0008980078273,
597.9699707,-0.0009094339912,
598.9799805,0.001808257774,
600,0.004451301415,
601.0100098,0,
602.0200195,-0.00542492047,
603.039978,-0.0143056782,
604.0499878,0.0008846136625,
605.0700073,-0.003590390319,
605.9400024,-0.005377654918,
606.9500122,-0.01591877826,
607.9699707,-0.01530176494,
608.9799805,-0.000900281244,
610,-0.006277503446,
611.0100098,-0.007902382873,
612.0200195,0.01441928558,
613.039978,-0.02927114815,
614.0499878,-0.02000816725,
615.0700073,-0.002673117677,
615.9400024,-0.01159832068,
616.9500122,-0.002693747869,
617.9699707,-0.01323722489,
618.9799805,0.003572596237,
620,-0.009650333785,
621.0100098,-0.01892961189,
622.0200195,-0.008910146542,
623.039978,0.008875130676,
624.0499878,-0.02535416558,
625.0700073,-0.02420812659,
625.9400024,0.006379585247,
626.9500122,-0.0008977071266,
627.9699707,-0.02345964871,
628.9799805,-0.0008898000233,
630,-0.003767563729,
631,-0.003587900894,
632,-0.01367163658,
633,-0.00800607726,
634,0.002729128581,
635,-0.004546768963,
636,-0.01068669092,
637,0.01178480964,
638,-0.007958854549,
639,-0.02172905207,
640,-0.01546758041,
641.0100098,-0.001780628343,
642.0200195,0.01709407754,
643.039978,-0.004491273779,
644.0499878,-0.004454501905,
645.0700073,0.008936167695,
645.9400024,0.001791231916,
646.9500122,-0.01334567089,
647.9699707,-0.02832156606,
648.9799805,-0.02422350273,
650,-0.0008783016237,
651,-0.01057301369,
652,-0.01326625887,
653,-0.002726026112,
654,-0.003515105462,
655,-0.01503215544,
656,-0.01603603363,
657,-0.01678286493,
658,0.001777507598,
659,-0.01491080318,
660,-0.01134122163,
661,-0.006156601012,
662,-0.001761608641,
663,-0.004456558265,
664,-0.01500183158,
665,-0.0216290839,
666,-0.01432907302,
667,-0.01235388219,
668,0.007114481647,
669,-0.01543634385,
670,-0.01803314313,
670.9799805,0.008143639192,
671.9699707,0.001791707007,
672.9500122,-0.01266319677,
673.9400024,-0.02143123187,
675.0700073,0.0009153066785,
676.0499878,-0.005376965273,
677.039978,-0.01251170784,
678.0200195,-0.005365262274,
679.0100098,0.000906414527,
680,-0.0026957714,
681,-0.01611071266,
682,-0.01679620519,
683,0.0008875241037,
684,0.002684960142,
685,-0.01068368461,
686,-0.00805285573,
687,-0.004477895331,
688,0.002694577677,
689,-0.003517305944,
690,-0.01522863563,
690.9799805,0.001798551413,
691.9699707,-0.01872647367,
692.9500122,0.007260048762,
693.9400024,-0.009720878676,
695.0700073,0.003524083178,
696.0499878,-0.005308654159,
697.039978,-0.0177451428,
698.0200195,-0.01768563874,
699.0100098,-0.006362040062,
700,-0.005447532982,
700.9799805,-0.01178141311,
701.9699707,-0.02170341089,
702.9500122,-0.008039188571,
703.9400024,-0.01092031971,
705.0700073,-0.001786922105,
706.0499878,-0.01168189663,
707.039978,-0.01780756749,
708.0200195,0,
709.0100098,-0.01430723909,
710,-0.008061879314,
710.9799805,-0.02159048058,
711.9699707,-0.006267717574,
712.9500122,-0.009101392701,
713.9400024,-0.01161612477,
715.0700073,0.003611399094,
716.0499878,-0.004589261021,
717.039978,-0.01806495525,
718.0200195,-0.02802475169,
719.0100098,0.01520915236,
720,-0.007178383879,
720.9699707,-0.0009036884876,
721.9400024,-0.001777738216,
723.0499878,-0.02496823296,
724.0200195,-0.0189011246,
725,-0.008066764101,
725.9699707,0.003573419526,
726.9400024,0.003598944517,
728.0499878,-0.001800808939,
729.0200195,0.0009061861783,
730,-0.02052411437,
730.9799805,-0.02761532739,
731.9699707,-0.01515727025,
732.9500122,-0.001797592849,
733.9400024,-0.008006618358,
735.0700073,0.009971210733,
736.0499878,-0.02795074135,
737.039978,-0.01245662384,
738.0200195,0.005440573208,
739.0100098,0.001811325084,
740,0.003725844901,
740.9500122,-0.01772906631,
742.0499878,-0.01525243744,
743.0100098,-0.02305837348,
743.9699707,-0.01072353497,
745.0599976,-0.03065388277,
746.0200195,-0.01969698817,
746.9799805,-0.01995280199,
747.9400024,-0.002676881617,
749.039978,-0.008909058757,
750,-0.006233070511,
750.9699707,-0.01878543943,
751.9400024,-0.02155499533,
753.0499878,0.001794916461,
754.0200195,-0.01613565534,
755,-0.02232344262,
755.9699707,0.002710342873,
756.9400024,0.000905925117,
758.0499878,0.002717280528,
759.0200195,0,
760,-0.01450388134,
760.9699707,0.002655938966,
761.9400024,0.008890722878,
763.0499878,-0.007382600568,
764.0200195,-0.007113823667,
765,-0.02319843881,
765.9699707,-0.01692965627,
766.9400024,-0.0291462522,
768.0499878,-0.007223534863,
769.0200195,-0.005455170292,
770,0.00362184993,
770.9500122,-0.01268523838,
772.0499878,0.005318483803,
773.0100098,-0.002658933168,
773.9699707,-0.006280448753,
775.0599976,-0.008027436212,
776.0200195,-0.01164720114,
776.9799805,-0.01247200463,
777.9400024,-0.007978447713,
779.039978,-0.0105911633,
780,0,
780.9400024,0.007991894148,
782.0200195,-0.004481941462,
782.9699707,0,
784.0499878,-0.008006540127,
785,-0.0008854760672,
785.9400024,-0.0115021551,
787.0200195,-0.002655553631,
787.9699707,-0.01997501403,
789.0499878,-0.01263521984,
790,-0.004449348431,
790.9500122,-0.01597293839,
792.0499878,-0.0054073832,
793.0100098,-0.009149875492,
793.9699707,-0.01897960342,
795.0599976,-0.008088920265,
796.0200195,-0.01601269655,
796.9799805,0.002689020243,
797.9400024,-0.01832980663,
799.039978,0.0035337999,
800,0.01077718753,

Sample 21,
Sample 21
Collection Time: 22/08/2023 12:58:49 PM
Operator Name  :
Scan Software Version: 1.2(147)
Parameter List :
Instrument                        Cary Eclipse
Instrument Serial Number          test
Data mode                         Fluorescence
Scan mode                         Emission
X Mode                            Wavelength (nm)
Start (nm)                        470.00
Stop (nm)                         800.00
Ex. Wavelength (nm)               460.00
Ex. Slit (nm)                     5
Em. Slit (nm)                     5
Scan rate (nm/min)                120.00
Data interval (nm)                1.0000
Averaging Time (s)                0.5000
Excitation filter                 Auto
Emission filter                   Open
PMT voltage (V)                   Medium
Corrected spectra                 OFF
Method Log     :
Method Name    : Default
Date/Time stamp: 22/08/2023 11:38:10 AM
Method Modifications:
Overlayed Graphs Changed: 22/08/2023 11:47:15 AM, Old:OFF, New:ON
Scan Control Changed: 22/08/2023 11:47:15 AM, Old:Medium, New:Slow
Ave. time (s): Changed: 22/08/2023 11:47:15 AM, Old:0.10000, New:0.50000
Excitation Wavelength Changed: 22/08/2023 11:47:15 AM, Old: 350.00, New: 340.00
Emission Wavelength Changed: 22/08/2023 11:47:15 AM, Old: 400.00, New: 350.00
Stop Wavelength Changed: 22/08/2023 11:47:15 AM, Old: 600.00, New: 750.00
Excitation Wavelength Changed: 22/08/2023 11:48:29 AM, Old: 340.00, New: 378.00
Emission Wavelength Changed: 22/08/2023 11:48:29 AM, Old: 350.00, New: 390.00
PMT Volts Changed: 22/08/2023 11:52:22 AM, Old:600, New:800
Emission PMT (V): Changed: 22/08/2023 11:52:22 AM, Old: 600, New: 800
Scan mode: Changed: 22/08/2023 11:59:48 AM, Old:Emission, New:Excitation
User Delta Stop Changed: 22/08/2023 11:59:48 AM, Old: 450.00, New: 483.00
User Delta Increment Changed: 22/08/2023 11:59:48 AM, Old:  10.00, New:   0.15
Excitation Wavelength Changed: 22/08/2023 11:59:48 AM, Old: 378.00, New: 220.00
Emission Wavelength Changed: 22/08/2023 11:59:48 AM, Old: 390.00, New: 483.00
Stop Wavelength Changed: 22/08/2023 11:59:48 AM, Old: 750.00, New: 373.00
Stop Wavelength Changed: 22/08/2023 12:02:41 PM, Old: 373.00, New: 473.00
PMT Volts Changed: 22/08/2023 12:08:26 PM, Old:800, New:600
Emission PMT (V): Changed: 22/08/2023 12:08:26 PM, Old: 800, New: 600
Scan mode: Changed: 22/08/2023 12:08:56 PM, Old:Excitation, New:Emission
Excitation Wavelength Changed: 22/08/2023 12:08:56 PM, Old: 220.00, New: 325.00
Emission Wavelength Changed: 22/08/2023 12:08:56 PM, Old: 483.00, New: 335.00
Stop Wavelength Changed: 22/08/2023 12:08:56 PM, Old: 473.00, New: 750.00
Scan mode: Changed: 22/08/2023 12:18:15 PM, Old:Emission, New:Excitation
User Delta Stop Changed: 22/08/2023 12:18:15 PM, Old: 483.00, New: 500.00
Excitation Wavelength Changed: 22/08/2023 12:18:15 PM, Old: 325.00, New: 220.00
Emission Wavelength Changed: 22/08/2023 12:18:15 PM, Old: 335.00, New: 500.00
Stop Wavelength Changed: 22/08/2023 12:18:15 PM, Old: 750.00, New: 490.00
Scan mode: Changed: 22/08/2023 12:25:59 PM, Old:Excitation, New:Emission
Excitation Wavelength Changed: 22/08/2023 12:25:59 PM, Old: 220.00, New: 400.00
Emission Wavelength Changed: 22/08/2023 12:25:59 PM, Old: 500.00, New: 410.00
Stop Wavelength Changed: 22/08/2023 12:25:59 PM, Old: 490.00, New: 750.00
Scan mode: Changed: 22/08/2023 12:35:24 PM, Old:Emission, New:Excitation
Excitation Wavelength Changed: 22/08/2023 12:35:24 PM, Old: 400.00, New: 410.00
Emission Wavelength Changed: 22/08/2023 12:35:24 PM, Old: 410.00, New: 400.00
User Delta Stop Changed: 22/08/2023 12:35:35 PM, Old: 500.00, New: 520.00
Excitation Wavelength Changed: 22/08/2023 12:35:35 PM, Old: 410.00, New: 220.00
Emission Wavelength Changed: 22/08/2023 12:35:35 PM, Old: 400.00, New: 520.00
Stop Wavelength Changed: 22/08/2023 12:35:35 PM, Old: 750.00, New: 510.00
Scan mode: Changed: 22/08/2023 12:41:42 PM, Old:Excitation, New:Emission
Excitation Wavelength Changed: 22/08/2023 12:41:42 PM, Old: 220.00, New: 330.00
Emission Wavelength Changed: 22/08/2023 12:41:42 PM, Old: 520.00, New: 340.00
Stop Wavelength Changed: 22/08/2023 12:41:42 PM, Old: 510.00, New: 650.00
Scan mode: Changed: 22/08/2023 12:49:06 PM, Old:Emission, New:Excitation
Excitation Wavelength Changed: 22/08/2023 12:49:06 PM, Old: 330.00, New: 220.00
Emission Wavelength Changed: 22/08/2023 12:49:06 PM, Old: 340.00, New: 400.00
Stop Wavelength Changed: 22/08/2023 12:49:06 PM, Old: 650.00, New: 390.00
Scan mode: Changed: 22/08/2023 12:53:51 PM, Old:Excitation, New:Emission
Excitation Wavelength Changed: 22/08/2023 12:53:51 PM, Old: 220.00, New: 460.00
Emission Wavelength Changed: 22/08/2023 12:53:51 PM, Old: 400.00, New: 470.00
Stop Wavelength Changed: 22/08/2023 12:53:51 PM, Old: 390.00, New: 800.00
End Method Modifications

