Sample 14,,
Wavelength (nm),Intensity (a.u.),
220,9.640666008,
220.9299927,7.864878654,
222.0299988,7.37922287,
222.9600067,4.807247639,
224.0599976,4.153398991,
225,3.312972307,
225.9299927,2.505299568,
227.0299988,1.953356147,
227.9600067,1.614895105,
229.0599976,1.357327342,
230,1.468139291,
230.9299927,1.608882785,
232.0299988,1.753984571,
232.9600067,1.945784569,
234.0599976,2.352084637,
235,2.323302984,
235.9299927,2.313653231,
237.0299988,1.797015429,
237.9600067,1.924767733,
239.0599976,1.591275096,
240,1.080061793,
240.9299927,1.247895122,
242.0299988,1.086313844,
242.9600067,1.029046059,
244.0599976,1.0062778,
245,1.00156033,
245.9299927,0.9396864176,
247.0299988,1.07640481,
247.9600067,0.9788826704,
249.0599976,1.279327154,
250,1.491782546,
250.9299927,1.726598144,
252.0299988,1.790254354,
252.9600067,1.96630621,
254.0599976,1.963697195,
255,1.672604442,
255.9299927,1.657163739,
257.0299988,1.288076639,
257.9599915,1.335872054,
259.0599976,1.48989749,
260,2.244250536,
261.0700073,4.492994308,
262,8.729887009,
263.0700073,18.03842354,
264,29.88897514,
265.0700073,44.57950974,
266,55.52194595,
267.0700073,68.02541351,
268,73.06158447,
269.0700073,77.62767029,
270,78.42861938,
270.9299927,75.80778503,
272.0299988,70.7938385,
272.9599915,66.43893433,
274.0599976,61.99214935,
275,56.52855301,
275.9299927,53.73792648,
277.0299988,50.75121307,
277.9599915,47.8151741,
279.0599976,45.90908051,
280,44.92154694,
280.9299927,43.43958664,
282.0299988,43.1013031,
282.9599915,41.99765015,
284.0599976,41.05142593,
285,41.32237625,
285.9299927,41.68384933,
287.0299988,42.50343704,
287.9599915,43.1482048,
289.0599976,43.79170609,
290,46.19937515,
291.0700073,47.28610611,
292,49.50900269,
293.0700073,51.09617996,
294,52.7384491,
295.0700073,53.63100052,
296,54.47823715,
297.0700073,54.54797363,
298,54.63862228,
299.0700073,56.71123886,
300,57.34300995,
300.9299927,59.43147659,
302.0299988,61.43801117,
302.9599915,62.26051712,
304.0599976,63.02396393,
305,64.69707489,
305.9299927,66.00589752,
307.0299988,66.99469757,
307.9599915,66.60590363,
309.0599976,66.45537567,
310,65.96857452,
311.0700073,64.94424438,
312,64.29418945,
313.0700073,63.98023605,
314,65.54423523,
315.0700073,68.00949097,
316,71.15597534,
317.0700073,73.55991364,
318,75.41790771,
319.0700073,73.195755,
320,69.49359131,
321.0700073,63.52796555,
322,59.15629959,
323.0700073,56.48162079,
324,54.99797058,
325.0700073,52.52132797,
326,50.38061905,
327.0700073,48.75606537,
328,47.89491653,
329.0700073,47.22602081,
330,45.80682755,
330.9299927,44.78128052,
332.0299988,43.98999023,
332.9599915,42.01337051,
334.0599976,40.65655136,
335,39.15285873,
335.9299927,38.41249084,
337.0299988,36.13898468,
337.9599915,35.10633087,
339.0599976,33.5653801,
340,32.61708069,
341.0700073,32.01861572,
342,30.08654785,
343.0700073,28.85352898,
344,27.39448929,
345.0700073,26.62791443,
346,24.44011879,
347.0700073,23.25649643,
348,22.62042046,
349.0700073,21.6132946,
350,21.15308952,
351.0700073,20.02971458,
352,18.76052666,
353.0700073,18.32384872,
354,17.77171707,
355.0700073,17.19662094,
356,16.74050331,
357.0700073,16.09459496,
358,15.9817543,
359.0700073,15.35042,
360,15.0929451,
361.0700073,14.33648777,
362,14.01575279,
363.0700073,13.31174564,
364,12.85749817,
365.0700073,12.22838402,
366,12.29850769,
367.0700073,11.53322029,
368,11.32988262,
369.0700073,10.84086227,
370,10.96233463,
371.0599976,10.82200718,
371.9599915,10.65184784,
373.0299988,10.40300751,
373.9299927,10.42875862,
375,10.34572124,
376.0599976,10.14719296,
376.9599915,9.964473724,
378.0299988,10.0951786,
378.9299927,10.07114601,
380,10.32362175,
381.0700073,10.32667255,
382,10.35362053,
383.0700073,10.46025085,
384,10.69880867,
385.0700073,10.64001656,
386,10.55775166,
387.0700073,10.53101063,
388,10.78548145,
389.0700073,10.67763519,
390,10.65828514,
391.0700073,10.49851799,
392,10.36926651,
393.0700073,10.15195656,
394,10.12128353,
395.0700073,10.23977089,
396,9.924610138,
397.0700073,9.982272148,
398,10.29638672,
399.0700073,10.32927227,
400,10.06831074,
401.0599976,10.3768549,
401.9599915,10.14914608,
403.0299988,10.16107368,
403.9299927,10.10632992,
405,9.936495781,
406.0599976,10.02285385,
406.9599915,9.994739532,
408.0299988,10.21413612,
408.9299927,10.00423622,
410,10.53949928,
411.0700073,10.46872044,
412,10.62923431,
413.0700073,10.8458395,
414,11.17414856,
415.0700073,11.71140003,
416,11.64672852,
417.0700073,12.12387657,
418,12.09590626,
419.0700073,12.42701244,
420,12.68143654,
421.0599976,12.86742973,
421.9599915,13.05020809,
423.0299988,13.47568703,
423.9299927,13.64441204,
425,13.8745079,
426.0599976,14.45367241,
426.9599915,14.84464455,
428.0299988,15.58672142,
428.9299927,16.35936928,
430,17.47066307,
431.0599976,18.28184128,
431.9599915,18.82772064,
433.0299988,19.63646889,
433.9299927,20.28429031,
435,21.55918694,
436.0599976,22.91145706,
436.9599915,24.19661522,
438.0299988,24.84868622,
438.9299927,26.11996269,
440,27.23557663,
441.0599976,28.03751564,
441.9599915,29.53701019,
443.0299988,31.02391243,
443.9299927,32.36671829,
445,34.39554977,
446.0599976,35.50623703,
446.9599915,36.9330368,
448.0299988,37.83371735,
448.9299927,39.44017029,
450,41.30954361,
451.0599976,43.60165787,
451.9599915,45.69145203,
453.0299988,48.65005493,
453.9299927,50.69188309,
455,53.6360321,
456.0599976,57.52090073,
456.9599915,60.64451218,
458.0299988,62.71846008,
458.9299927,64.17544556,
460,64.90166473,
461.0599976,66.75131989,
461.9599915,68.95462799,
463.0299988,72.10047913,
463.9299927,77.22253418,
465,80.7877121,
466.0599976,83.1788559,
466.9599915,86.4214325,
468.0299988,91.10290527,
468.9299927,93.98982239,
470,97.80123901,
471.0400085,101.3883362,
471.9400024,105.2295609,
472.980011,109.1921921,
474.019989,115.0437927,
475.0700073,119.4056015,
475.9700012,123.7295685,
477.0100098,128.4773407,
478.0499878,135.8222198,
478.9500122,142.0230255,
480,151.5664978,
481.0599976,159.6701202,
481.9599915,161.0917664,
483.0299988,162.7874451,
483.9299927,162.6952972,
485,165.6525574,
486.0599976,166.9753723,
486.9599915,169.8444977,
488.0299988,177.594635,
488.9299927,180.8748474,
490,184.0112152,
491.0400085,186.8795471,
491.9400024,189.5282898,
492.980011,195.0327301,
494.019989,198.6701813,
495.0700073,207.6511536,
495.9700012,215.5459747,
497.0100098,223.2037201,
498.0499878,227.6643066,
498.9500122,231.0091705,
500,235.9580078,
501.0599976,243.5556488,
501.9599915,250.1212921,
503.0299988,257.1920471,
503.9299927,263.3257751,
505,271.4184875,
506.0599976,278.1657715,
506.9599915,283.5841675,
508.0299988,289.995697,
508.9299927,295.821167,
510,301.6884155,
511.0400085,303.3184509,
511.9400024,306.530365,
512.9799805,312.0999146,
514.0200195,318.0079041,
515.0700073,327.6750488,
515.9699707,335.6014709,
517.0100098,341.5844116,
518.0499878,343.7203674,
518.9500122,343.3569641,
520,344.2060852,
521.039978,347.3045959,
521.9400024,357.0218811,
522.9799805,368.9041138,
524.0200195,382.4343262,
525.0700073,392.6330566,
525.9699707,396.8027954,
527.0100098,399.4176331,
528.0499878,395.2592163,
528.9500122,388.7401428,
530,387.1356506,
531.0200195,388.1439819,
532.0499878,391.7600708,
532.9400024,395.8517761,
533.9699707,402.3430481,
535,402.9888916,
536.0200195,404.5922241,
537.0499878,409.1478271,
537.9400024,420.3632202,
538.9699707,430.0389404,
540,431.8356934,
541.039978,430.2540283,
541.9400024,427.2304993,
542.9799805,420.7243042,
544.0200195,415.346405,
545.0700073,415.2720337,
545.9699707,417.2328491,
547.0100098,419.0704651,
548.0499878,418.7037659,
548.9500122,417.9997864,
550,420.9258118,
551.0200195,423.698822,
552.0499878,427.8568726,
552.9400024,428.7074585,
553.9699707,425.3486023,
555,420.4858093,
556.0200195,417.8083191,
557.0499878,417.1795349,
557.9400024,414.7454834,
558.9699707,415.9850464,
560,411.2381897,
561.039978,405.4439392,
561.9400024,403.540741,
562.9799805,400.1279602,
564.0200195,397.4075317,
565.0700073,391.5447388,
565.9699707,383.3476868,
567.0100098,373.3100586,
568.0499878,366.0014038,
568.9500122,360.8362427,
570,353.2025146,
571.0200195,349.2556152,
572.0499878,341.2485046,
572.9400024,331.6351624,
573.9699707,319.9733276,
575,309.5768738,
576.0200195,297.9830933,
577.0499878,287.8037415,
577.9400024,278.1237183,
578.9699707,271.0730591,
580,260.7834167,
581.0200195,250.2146301,
582.0499878,240.8514404,
582.9400024,232.5187378,
583.9699707,223.1004181,
585,212.9237518,
586.0200195,201.3582916,
587.0499878,194.1572876,
587.9400024,183.1063538,
588.9699707,173.5552826,
590,166.1994171,
591.0200195,155.0703125,
592.0499878,145.6534271,
592.9400024,139.9252625,
593.9699707,131.1080475,
595,123.1692429,
596.0200195,114.776535,
597.0499878,107.0099106,
597.9400024,101.0306396,
598.9699707,94.8458786,
600,86.36786652,
601.0100098,79.58885193,
602.0200195,74.28534698,
603.039978,68.71155548,
604.0499878,63.69377518,
605.0700073,58.78959274,
605.9400024,54.22512054,
606.9500122,50.04877472,
607.9699707,45.12581635,
608.9799805,40.87070847,
610,38.31629181,
611.0200195,34.18466949,
612.0499878,31.20734787,
612.9400024,28.78687286,
613.9699707,25.15052032,
615,23.05244064,
616.0200195,21.0951004,
617.0499878,18.71156693,
617.9400024,18.30362511,
618.9699707,15.90003967,
620,14.72494984,
621.0100098,12.73491573,
622.0200195,11.92751026,
623.039978,10.42392635,
624.0499878,8.977941513,
625.0700073,8.774643898,
625.9400024,7.510296345,
626.9500122,6.815217018,
627.9699707,6.166881084,
628.9799805,5.543298721,
630,5.112712383,

Sample 14,
Sample 14
Collection Time: 5/05/2023 3:23:22 PM
Operator Name  :
Scan Software Version: 1.2(147)
Parameter List :
Instrument                        Cary Eclipse
Instrument Serial Number          test
Data mode                         Fluorescence
Scan mode                         Excitation
X Mode                            Wavelength (nm)
Start (nm)                        220.00
Stop (nm)                         630.00
Em. Wavelength (nm)               640.00
Ex. Slit (nm)                     5
Em. Slit (nm)                     5
Scan rate (nm/min)                600.00
Data interval (nm)                1.0000
Averaging Time (s)                0.1000
Excitation filter                 Auto
Emission filter                   Open
PMT voltage (V)                   Medium
Corrected spectra                 OFF
Method Log     :
Method Name    : Default
Date/Time stamp: 5/05/2023 1:46:27 PM
Method Modifications:
User Delta Stop Changed: 5/05/2023 2:37:38 PM, Old: 450.00, New: 690.00
User Delta Increment Changed: 5/05/2023 2:37:38 PM, Old:  10.00, New:   0.15
Excitation Wavelength Changed: 5/05/2023 2:37:38 PM, Old: 350.00, New: 690.00
Emission Wavelength Changed: 5/05/2023 2:37:38 PM, Old: 400.00, New: 700.00
Stop Wavelength Changed: 5/05/2023 2:37:38 PM, Old: 600.00, New: 850.00
Excitation Wavelength Changed: 5/05/2023 2:38:01 PM, Old: 690.00, New: 630.00
Emission Wavelength Changed: 5/05/2023 2:38:01 PM, Old: 700.00, New: 640.00
Overlayed Graphs Changed: 5/05/2023 2:38:31 PM, Old:OFF, New:ON
Scan mode: Changed: 5/05/2023 2:40:13 PM, Old:Emission, New:Excitation
User Delta Stop Changed: 5/05/2023 2:40:13 PM, Old: 690.00, New: 780.00
Excitation Wavelength Changed: 5/05/2023 2:40:13 PM, Old: 630.00, New: 220.00
Emission Wavelength Changed: 5/05/2023 2:40:13 PM, Old: 640.00, New: 780.00
Stop Wavelength Changed: 5/05/2023 2:40:13 PM, Old: 850.00, New: 770.00
Scan mode: Changed: 5/05/2023 2:52:20 PM, Old:Excitation, New:Emission
Excitation Wavelength Changed: 5/05/2023 2:52:20 PM, Old: 220.00, New: 566.00
Emission Wavelength Changed: 5/05/2023 2:52:20 PM, Old: 780.00, New: 576.00
Stop Wavelength Changed: 5/05/2023 2:52:20 PM, Old: 770.00, New: 850.00
Excitation Wavelength Changed: 5/05/2023 2:53:03 PM, Old: 566.00, New: 500.00
Emission Wavelength Changed: 5/05/2023 2:53:03 PM, Old: 576.00, New: 510.00
Scan mode: Changed: 5/05/2023 2:55:50 PM, Old:Emission, New:Excitation
Excitation Wavelength Changed: 5/05/2023 2:55:50 PM, Old: 500.00, New: 220.00
Emission Wavelength Changed: 5/05/2023 2:55:50 PM, Old: 510.00, New: 613.00
Stop Wavelength Changed: 5/05/2023 2:55:50 PM, Old: 850.00, New: 605.00
Emission Wavelength Changed: 5/05/2023 2:56:46 PM, Old: 613.00, New: 625.00
Stop Wavelength Changed: 5/05/2023 2:56:46 PM, Old: 605.00, New: 615.00
Scan mode: Changed: 5/05/2023 3:10:55 PM, Old:Excitation, New:Emission
Excitation Wavelength Changed: 5/05/2023 3:10:55 PM, Old: 220.00, New: 542.00
Emission Wavelength Changed: 5/05/2023 3:10:55 PM, Old: 625.00, New: 552.00
Stop Wavelength Changed: 5/05/2023 3:10:55 PM, Old: 615.00, New: 800.00
Scan mode: Changed: 5/05/2023 3:23:18 PM, Old:Emission, New:Excitation
Excitation Wavelength Changed: 5/05/2023 3:23:18 PM, Old: 542.00, New: 220.00
Emission Wavelength Changed: 5/05/2023 3:23:18 PM, Old: 552.00, New: 640.00
Stop Wavelength Changed: 5/05/2023 3:23:18 PM, Old: 800.00, New: 630.00
End Method Modifications

