Sample 11,,
Wavelength (nm),Intensity (a.u.),
220,0.1454333961,
220.9299927,0.2573009133,
222.0299988,0.5291565061,
222.9600067,-0.6834602952,
224.0599976,0,
225,-0.2510922551,
225.9299927,-0.1134472862,
227.0299988,0,
227.9600067,-0.1827867031,
229.0599976,0.2610284388,
230,0.1121352836,
230.9299927,-0.02467795275,
232.0299988,0.07836376876,
232.9600067,-0.0815416798,
234.0599976,-0.1144950837,
235,0.05743825436,
235.9299927,0.08779117465,
237.0299988,-0.05339170992,
237.9600067,0.2090543658,
239.0599976,-0.0592510663,
240,0.05023610964,
240.9299927,-0.08950948715,
242.0299988,-0.06671470404,
242.9600067,-0.01226572506,
244.0599976,0.04565740749,
245,0.03365077451,
245.9299927,0.03118049353,
247.0299988,0.03925224394,
247.9600067,0.02072324045,
249.0599976,-0.03295761719,
250,-0.08909253031,
250.9299927,0.1467880011,
252.0299988,0.1196798533,
252.9600067,0.09479871392,
254.0599976,0.0503144674,
255,0.1523600519,
255.9299927,0.1911654323,
257.0299988,0.2064274997,
257.9599915,0.2380363047,
259.0599976,0.3194995522,
260,0.201452136,
261.0700073,0.3099757731,
262,0.3931006193,
263.0700073,0.4481360614,
264,0.5010074973,
265.0700073,0.5740887523,
266,0.7093204856,
267.0700073,0.7648326159,
268,0.6943764091,
269.0700073,0.7350633144,
270,0.7250400782,
270.9299927,0.6677948236,
272.0299988,0.8174740672,
272.9599915,0.6661348343,
274.0599976,0.8212602735,
275,0.6762923002,
275.9299927,0.8043679595,
277.0299988,0.7519749403,
277.9599915,0.7311409712,
279.0599976,0.8183926344,
280,0.7534304857,
280.9299927,0.8334649801,
282.0299988,0.822817266,
282.9599915,0.807302475,
284.0599976,0.8370578289,
285,0.9503246546,
285.9299927,0.9171130657,
287.0299988,0.7725646496,
287.9599915,0.7188618183,
289.0599976,0.660694778,
290,0.4812981486,
291.0700073,0.5260348916,
292,0.4479918778,
293.0700073,0.3960129619,
294,0.4440281689,
295.0700073,0.3446831107,
296,0.3919303715,
297.0700073,0.3385813236,
298,0.2979396284,
299.0700073,0.3255130649,
300,0.3645643592,
300.9299927,0.3599711955,
302.0299988,0.2909062505,
302.9599915,0.4423660338,
304.0599976,0.372697264,
305,0.2970822453,
305.9299927,0.3797468245,
307.0299988,0.4522654414,
307.9599915,0.6216306686,
309.0599976,0.8350979686,
310,1.800406337,
311.0700073,3.172188997,
312,4.386389256,
313.0700073,4.890507698,
314,4.701864243,
315.0700073,3.939150333,
316,2.552381516,
317.0700073,1.106304407,
318,0.4589532912,
319.0700073,0.3375320137,
320,0.1797160506,
321.0700073,0.1319957823,
322,0.06949269772,
323.0700073,0.1086764559,
324,0.1077876613,
325.0700073,0.2484712154,
326,0.1440776885,
327.0700073,0.03126172349,
328,0.09485116601,
329.0700073,0.2550491691,
330,0.1094622239,
330.9299927,0.2501954734,
332.0299988,0.1386022717,
332.9599915,0.1750003994,
334.0599976,0.2557814121,
335,0,
335.9299927,0.2918900549,
337.0299988,0.06398463994,
337.9599915,0.1091703102,
339.0599976,0.1569735408,
340,0.2465863079,
341.0700073,0.2002186924,
342,0.05694355443,
343.0700073,0.2571318448,
344,0.05732137337,
345.0700073,0.02751940116,
346,0.2035357058,
347.0700073,0.1713844985,
348,0.1738576144,
349.0700073,0.1172195524,
350,0.1106011197,
351.0700073,0.2300468236,
352,0.1437814534,
353.0700073,0.1164334118,
354,0.08530330658,
355.0700073,0.06959772855,
356,0.2071056068,
357.0700073,0,
358,0.1408473998,
359.0700073,0.1390702426,
360,0.1672825813,
361.0700073,0.08308658749,
362,0.1733889282,
363.0700073,0.1574885845,
364,0.00932896696,
365.0700073,0.09362808615,
366,0.2067127228,
367.0700073,0.1013958827,
368,0.193662405,
369.0700073,0.1364374906,
370,0.2209383249,
371.0599976,0.2240884304,
371.9599915,0.109841831,
373.0299988,0.1638522595,
373.9299927,0.1111975983,
375,0.1582389772,
376.0599976,0.1369358897,
376.9599915,0.1836804301,
378.0299988,0.04337115213,
378.9299927,0.183862403,
380,0.1339369416,
381.0700073,0.1414364725,
382,0.0771195069,
383.0700073,0.1721777171,
384,0.08658158779,
385.0700073,0.146608457,
386,0.1535551995,
387.0700073,0.1920614541,
388,0.1332382411,
389.0700073,0.08910603821,
390,0.171941936,
391.0700073,0.1420867741,
392,0.1043337584,
393.0700073,0.1275270432,
394,0.08154390007,
395.0700073,0.1553365141,
396,0.1585437059,
397.0700073,0.1524448246,
398,0.06587663293,
399.0700073,0.1550891399,
400,0.08465668559,
401.0599976,0.1486325711,
401.9599915,0.135635525,
403.0299988,0.03218911588,
403.9299927,0.1153698266,
405,0.1226113811,
406.0599976,0.1143706739,
406.9599915,0.08708584309,
408.0299988,0.2119794935,
408.9299927,0.1327031106,
410,0.1301324815,
411.0700073,0.1243425384,
412,0.1155296117,
413.0700073,0.04646678269,
414,0.1172876731,
415.0700073,0.1880444288,
416,0.1046901196,
417.0700073,0.1332208365,
418,0.1143544391,
419.0700073,0.09210712463,
420,0.09149549156,
421.0599976,0.09209155291,
421.9599915,0.1179195419,
423.0299988,0.1240625829,
423.9299927,0.08362817764,
425,0.115976043,
426.0599976,0.1261146218,
426.9599915,0.1178429425,
428.0299988,0.08197039366,
428.9299927,0.1136214659,
430,0.08581674844,
431.0599976,0.1251893491,
431.9599915,0.1257771999,
433.0299988,0.1090005115,
433.9299927,0.08411313593,
435,0.116334632,
436.0599976,0.1223057061,
436.9599915,0.1392109543,
438.0299988,0.1587263793,
438.9299927,0.1273971647,
440,0.1012244374,
441.0599976,0.1217950359,
441.9599915,0.1093169302,
443.0299988,0.1112694368,
443.9299927,0.1208132878,
445,0.08888822794,
446.0599976,0.1097590998,
446.9599915,0.1615005285,
448.0299988,0.07938668132,
448.9299927,0.1206761003,
450,0.118299745,
451.0599976,0.04940467328,
451.9599915,0.1477207094,
453.0299988,0.1235037073,
453.9299927,0.1043668017,
455,0.1860583574,
456.0599976,0.1479932517,
456.9599915,0.1244698912,
458.0299988,0.1336385459,
458.9299927,0.1288737208,
460,0.112255618,
461.0599976,0.1339724213,
461.9599915,0.144261986,
463.0299988,0.115646407,
463.9299927,0.1532271206,
465,0.1748822331,
466.0599976,0.1900858283,
466.9599915,0.1708004475,
468.0299988,0.1272060126,
468.9299927,0.1768863946,
470,0.1960111707,
471.0400085,0.113630712,
471.9400024,0.1076480299,
472.980011,0.2471710593,
474.019989,0.1498789787,
475.0700073,0.1306586713,
475.9700012,0.1292647868,
477.0100098,0.07862759382,
478.0499878,0.1694711894,
478.9500122,0.1285685897,
480,0.1749209911,
481.0599976,0.1263647377,
481.9599915,0.1341003776,
483.0299988,0.1297589988,
483.9299927,0.1153353751,
485,0.1182382479,
486.0599976,0.1172465906,
486.9599915,0.1474826336,
488.0299988,0.1555092484,
488.9299927,0.0935716331,
490,0.07370113581,
491.0400085,0.1305189878,
491.9400024,0.119067587,
492.980011,0.04036571458,
494.019989,0.08362602443,
495.0700073,0.1542567164,
495.9700012,0.122154817,
497.0100098,0.1652032435,
498.0499878,0.2041163594,
498.9500122,0.0629875958,
500,0.1674886048,
501.0599976,0.09690965712,
501.9599915,0.1521344483,
503.0299988,0.1279645115,
503.9299927,0.2079434395,
505,0.144289732,
506.0599976,0.02220667712,
506.9599915,0.03059195355,
508.0299988,0.1189355254,
508.9299927,0.1419806331,
510,0.07514912635,
511.0400085,0.1389784962,
511.9400024,0.1432829052,
512.9799805,0.1275460124,
514.0200195,0.135523662,
515.0700073,0.09807286412,
515.9699707,0.1698199958,
517.0100098,0.0836501196,
518.0499878,0.08270082623,
518.9500122,0.00877770409,
520,0.1132759452,
521.039978,0.09952319413,
521.9400024,0.06842084974,
522.9799805,0.04679764062,
524.0200195,0.04990351945,
525.0700073,0.06043985114,
525.9699707,0.1600946635,
527.0100098,0.1797688156,
528.0499878,0.1276716739,
528.9500122,0.1750537455,
530,0.1686596721,
531.0200195,0.2085876763,
532.0499878,0.1632345468,
532.9400024,0.1055764183,
533.9699707,0.05516785011,
535,0.08883690089,
536.0200195,0.07625380158,
537.0499878,0.08783557266,
537.9400024,0.1060073525,
538.9699707,0.09799467027,
540,0.03742431104,
541.039978,0.09366331249,
541.9400024,0.1295411289,
542.9799805,0.108437188,
544.0200195,0.06377805769,
545.0700073,0.06339029968,
545.9699707,0.05815982074,
547.0100098,0.1229646727,
548.0499878,0.02278345451,
548.9500122,0.1967438906,
550,0.1601537466,
551.0200195,0.05557794124,
552.0499878,0.02903937735,
552.9400024,-0.02917493321,
553.9699707,0.03037344106,
555,-0.03147128224,
556.0200195,0.130853653,
557.0499878,0.03575514629,
557.9400024,-0.1420454532,
558.9699707,0.14462623,
560,0.09049446136,
561.039978,0,
561.9400024,-0.1669077575,
562.9799805,0.1078496575,
564.0200195,0,
565.0700073,0.1555075645,
565.9699707,0.1483752877,
567.0100098,0.2316960096,
568.0499878,0.2133350819,
568.9500122,0,
570,0.1742408574,
571.0200195,0.1721304953,
572.0499878,-0.01521491073,
572.9400024,0.01482228097,
573.9699707,0.05907459557,
575,0.06132899597,
576.0200195,0.08004995435,
577.0499878,-0.06802374125,
577.9400024,0,
578.9699707,0.0975952521,
580,0.1042709425,
581.0200195,0.2794316709,
582.0499878,0,
582.9400024,0.1152525172,
583.9699707,0.3663003743,
585,0.04945842922,
586.0200195,-0.07315289229,
587.0499878,0.1459711939,
587.9400024,0.1365622729,
588.9699707,-0.08771737665,
590,-0.09001710266,
591.0200195,0,
592.0499878,-0.1535155028,
592.9400024,0.1506575048,
593.9699707,0.06370509416,
595,0.2277809978,
596.0200195,-0.09639111161,
597.0499878,0.09683541954,
597.9400024,-0.01892684773,
598.9699707,0.2546572983,
600,0.1670146137,
601.0100098,0.1243188307,
602.0200195,0.1031523347,
603.039978,0.1605651975,
604.0499878,0.2270620018,
605.0700073,0.0901177004,
605.9400024,0.05741846561,
606.9500122,0.03746791929,
607.9699707,-0.05824224651,
608.9799805,0.05960778147,
610,0.02059096098,
611.0200195,0.0869981274,
612.0499878,0.09060637653,
612.9400024,0.101084128,
613.9699707,-0.2406031191,
615,0.02841635607,
616.0200195,0.3767023981,
617.0499878,0.3704864681,
617.9400024,0.2586058378,
618.9699707,-0.2129925489,
620,0,

Sample 11,
Sample 11
Collection Time: 21/05/2023 1:35:19 PM
Operator Name  :
Scan Software Version: 1.2(147)
Parameter List :
Instrument                        Cary Eclipse
Instrument Serial Number          test
Data mode                         Fluorescence
Scan mode                         Excitation
X Mode                            Wavelength (nm)
Start (nm)                        220.00
Stop (nm)                         620.00
Em. Wavelength (nm)               630.00
Ex. Slit (nm)                     5
Em. Slit (nm)                     5
Scan rate (nm/min)                600.00
Data interval (nm)                1.0000
Averaging Time (s)                0.1000
Excitation filter                 Auto
Emission filter                   Open
PMT voltage (V)                   Medium
Corrected spectra                 OFF
Method Log     :
Method Name    : Default
Date/Time stamp: 21/05/2023 11:47:26 AM
Method Modifications:
Overlayed Graphs Changed: 21/05/2023 1:20:46 PM, Old:OFF, New:ON
Excitation Wavelength Changed: 21/05/2023 1:20:46 PM, Old: 350.00, New: 341.00
Emission Wavelength Changed: 21/05/2023 1:20:46 PM, Old: 400.00, New: 351.00
Stop Wavelength Changed: 21/05/2023 1:20:46 PM, Old: 600.00, New: 650.00
PMT Volts Changed: 21/05/2023 1:21:47 PM, Old:600, New:800
Emission PMT (V): Changed: 21/05/2023 1:21:47 PM, Old: 600, New: 800
Scan mode: Changed: 21/05/2023 1:22:38 PM, Old:Emission, New:Excitation
Excitation Wavelength Changed: 21/05/2023 1:22:38 PM, Old: 341.00, New: 220.00
Emission Wavelength Changed: 21/05/2023 1:22:38 PM, Old: 351.00, New: 381.00
Stop Wavelength Changed: 21/05/2023 1:22:38 PM, Old: 650.00, New: 371.00
Scan mode: Changed: 21/05/2023 1:24:38 PM, Old:Excitation, New:Emission
Excitation Wavelength Changed: 21/05/2023 1:24:38 PM, Old: 220.00, New: 381.00
Emission Wavelength Changed: 21/05/2023 1:24:38 PM, Old: 381.00, New: 220.00
Excitation Wavelength Changed: 21/05/2023 1:24:52 PM, Old: 381.00, New: 339.00
Emission Wavelength Changed: 21/05/2023 1:24:52 PM, Old: 220.00, New: 349.00
Stop Wavelength Changed: 21/05/2023 1:24:52 PM, Old: 371.00, New: 650.00
User Delta Stop Changed: 21/05/2023 1:31:08 PM, Old: 450.00, New: 553.00
User Delta Increment Changed: 21/05/2023 1:31:08 PM, Old:  10.00, New:   0.15
Excitation Wavelength Changed: 21/05/2023 1:31:08 PM, Old: 339.00, New: 553.00
Emission Wavelength Changed: 21/05/2023 1:31:08 PM, Old: 349.00, New: 563.00
Stop Wavelength Changed: 21/05/2023 1:31:08 PM, Old: 650.00, New: 850.00
PMT Volts Changed: 21/05/2023 1:31:49 PM, Old:800, New:600
Emission PMT (V): Changed: 21/05/2023 1:31:49 PM, Old: 800, New: 600
Scan mode: Changed: 21/05/2023 1:33:46 PM, Old:Emission, New:Excitation
User Delta Stop Changed: 21/05/2023 1:33:46 PM, Old: 553.00, New: 630.00
Excitation Wavelength Changed: 21/05/2023 1:33:46 PM, Old: 553.00, New: 220.00
Emission Wavelength Changed: 21/05/2023 1:33:46 PM, Old: 563.00, New: 630.00
Stop Wavelength Changed: 21/05/2023 1:33:46 PM, Old: 850.00, New: 620.00
End Method Modifications

