Sample 4,,
Wavelength (nm),Intensity (a.u.),
390,2.212512732,
391.0599976,2.178373337,
391.9599915,2.481856108,
393.0299988,2.890360117,
393.9299927,3.305919409,
395,3.528644085,
396.0599976,3.429836273,
396.9599915,3.218823195,
398.0299988,3.231948376,
398.9299927,2.76938653,
400,2.971550465,
401.0599976,2.760388851,
401.9599915,2.542690039,
403.0299988,2.253898382,
403.9299927,2.196978092,
405,1.908197403,
406.0599976,1.586715698,
406.9599915,1.542986631,
408.0299988,1.274205804,
408.9299927,1.281435251,
410,1.110598445,
411.0599976,1.102373004,
411.9599915,1.002305508,
413.0299988,1.303168058,
413.9299927,1.204504251,
415,1.110137463,
416.0599976,1.182688713,
416.9599915,1.266314626,
418.0299988,1.429128051,
418.9299927,1.751031995,
420,1.944557786,
421.0599976,2.628823519,
421.9599915,3.513836384,
423.0299988,5.075068474,
423.9299927,6.721205235,
425,8.541831017,
426.0599976,10.14668655,
426.9599915,10.98635769,
428.0299988,11.2610817,
428.9299927,10.67731571,
430,9.160665512,
431.0400085,7.456170559,
431.9400024,6.059372425,
432.980011,4.497686386,
434.019989,3.191483259,
435.0700073,2.258535385,
435.9700012,1.589157581,
437.0100098,1.317009449,
438.0499878,1.242226124,
438.9500122,1.144573212,
440,1.047212958,
441.0599976,1.146871209,
441.9599915,1.183762431,
443.0299988,1.346058846,
443.9299927,1.103575349,
445,1.185885668,
446.0599976,1.227678776,
446.9599915,1.267045736,
448.0299988,1.131636977,
448.9299927,1.316608071,
450,1.204696178,
451.0599976,1.253483891,
451.9599915,1.261499405,
453.0299988,1.261342645,
453.9299927,1.26148057,
455,1.186586142,
456.0599976,1.142638087,
456.9599915,1.174611211,
458.0299988,1.180604935,
458.9299927,1.136068106,
460,1.148680806,
461.0400085,1.199221373,
461.9400024,1.061992884,
462.980011,1.03440094,
464.019989,1.038800359,
465.0700073,1.084564567,
465.9700012,0.9567658901,
467.0100098,1.103842974,
468.0499878,1.179516435,
468.9500122,1.090448737,
470,1.056911945,
471.0400085,1.051943779,
471.9400024,0.9801066518,
472.980011,1.060355425,
474.019989,1.035009384,
475.0700073,1.132326603,
475.9700012,1.024958491,
477.0100098,1.154203892,
478.0499878,1.056447625,
478.9500122,1.116852045,
480,1.002878785,
481.0400085,0.9798909426,
481.9400024,0.9357801676,
482.980011,1.003433466,
484.019989,0.9103322625,
485.0700073,1.026896834,
485.9700012,0.9543799162,
487.0100098,1.048187733,
488.0499878,0.999362886,
488.9500122,0.9844276309,
490,0.952629149,
491.0400085,0.9718173146,
491.9400024,0.9705059528,
492.980011,1.024366736,
494.019989,0.9350712299,
495.0700073,0.7994868755,
495.9700012,0.868365109,
497.0100098,0.818064332,
498.0499878,0.7488215566,
498.9500122,0.8230723739,
500,0.9115577936,
501.0400085,0.9194172621,
501.9400024,0.7751852274,
502.980011,0.6950106621,
504.019989,0.792013526,
505.0700073,0.8222245574,
505.9700012,0.712056458,
507.0100098,0.6683562398,
508.0499878,0.772546649,
508.9500122,0.7445102334,
510,0.7641053796,
511.0400085,0.6983971,
511.9400024,0.6322694421,
512.9799805,0.7279436588,
514.0200195,0.6944915652,
515.0700073,0.7226989269,
515.9699707,0.801651299,
517.0100098,0.7481781244,
518.0499878,0.7032430172,
518.9500122,0.6470451355,
520,0.644897759,
521.0200195,0.6453009248,
522.0499878,0.6933127046,
522.9400024,0.6447657347,
523.9699707,0.5738944411,
525,0.5137162805,
526.0200195,0.675524354,
527.0499878,0.5930193067,
527.9400024,0.5682707429,
528.9699707,0.5159077644,
530,0.5313685536,
531.039978,0.5468410254,
531.9400024,0.5373088121,
532.9799805,0.6078339815,
534.0200195,0.5988776684,
535.0700073,0.5499902964,
535.9699707,0.4616156518,
537.0100098,0.4402087331,
538.0499878,0.4478910267,
538.9500122,0.4642887712,
540,0.3961172998,
541.0200195,0.4816685915,
542.0499878,0.4696393311,
542.9400024,0.445566088,
543.9699707,0.419657737,
545,0.4425276518,
546.0200195,0.4886545241,
547.0499878,0.3716496527,
547.9400024,0.2835384011,
548.9699707,0.3671407104,
550,0.3877031803,
551.0200195,0.3840627074,
552.0499878,0.4248063862,
552.9400024,0.3099251688,
553.9699707,0.3094169199,
555,0.380146265,
556.0200195,0.2218876034,
557.0499878,0.3135406077,
557.9400024,0.2716221511,
558.9699707,0.2892313898,
560,0.3008648455,
561.0200195,0.3068588674,
562.0499878,0.2756110728,
562.9400024,0.2912286222,
563.9699707,0.2080121636,
565,0.2485356778,
566.0200195,0.2212360352,
567.0499878,0.2465450317,
567.9400024,0.2941069901,
568.9699707,0.2501763403,
570,0.2015798539,
571.0100098,0.1836501211,
572.0200195,0.2181260735,
573.039978,0.2794549167,
574.0499878,0.277626127,
575.0700073,0.1996813118,
575.9400024,0.1721562296,
576.9500122,0.1700722873,
577.9699707,0.1601126045,
578.9799805,0.254760623,
580,0.2421425581,
581.0200195,0.1940055937,
582.0499878,0.1731266528,
582.9400024,0.2348035127,
583.9699707,0.1813443303,
585,0.200089857,
586.0200195,0.2198339552,
587.0499878,0.2126298547,
587.9400024,0.162200734,
588.9699707,0.2547867596,
590,0.1465324163,
591.0100098,0.1521330178,
592.0200195,0.1838559508,
593.039978,0.1246718019,
594.0499878,0.1343832165,
595.0700073,0.1357187629,
595.9400024,0.1478788704,
596.9500122,0.1873353869,
597.9699707,0.1753169,
598.9799805,0.1562045366,
600,0.1412716955,
601.0100098,0.148383677,
602.0200195,0.1384022832,
603.039978,0.1362217516,
604.0499878,0.06943282485,
605.0700073,0.1887791157,
605.9400024,0.06356530637,
606.9500122,0.1389843673,
607.9699707,0.1454111636,
608.9799805,0.1414016485,
610,0.1463729739,
611.0100098,0.1281891614,
612.0200195,0.1352305114,
613.039978,0.1419362724,
614.0499878,0.07642380148,
615.0700073,0.1763616651,
615.9400024,0.1195070446,
616.9500122,0.1588399261,
617.9699707,0.1218994111,
618.9799805,0.1106439456,
620,0.08132019639,
621.0100098,0.08377595246,
622.0200195,0.06890079379,
623.039978,0.05362859741,
624.0499878,0.1390312612,
625.0700073,0.09951128811,
625.9400024,0.06775449961,
626.9500122,0.09888301045,
627.9699707,0.1068616062,
628.9799805,0.09099777788,
630,0.08151075989,
631,0.07913226634,
632,0.09949060529,
633,0.04388362914,
634,0.07587717474,
635,0.09404824674,
636,0.09191717207,
637,-0.01881686971,
638,0.1041775197,
639,0.0900029242,
640,0.1018652692,
641.0100098,0.1130779088,
642.0200195,0.09435568005,
643.039978,0.08660800755,
644.0499878,0.0901190117,
645.0700073,0.04826888442,
645.9400024,0.06293650717,
646.9500122,0.06128634512,
647.9699707,0.04949814454,
648.9799805,0.1373863518,
650,0.04764312878,
651,0.0131871691,
652,0.06573251635,
653,0.06566801667,
654,0.03532156721,
655,0.07899206132,
656,0.0690214783,
657,0.02062756568,
658,0.07485534251,
659,0.04958385974,
660,0.06900642067,
661,0.1073007807,
662,0.05611911044,
663,0.04235025495,
664,0.0349320583,
665,0.05333509669,
666,0.0750708133,
667,0.04075900465,
668,0.05927890912,
669,0.1044507027,
670,0.05233523622,
670.9799805,0.07818177342,
671.9699707,0.08534671366,
672.9500122,0.08459743857,
673.9400024,0.1191768572,
675.0700073,0.03826133162,
676.0499878,0.09906969965,
677.039978,0.05052489787,
678.0200195,0.06436438113,
679.0100098,0.06394090503,
680,0.1164297387,
681,0.1267112941,
682,0.1212084442,
683,0.08570510894,
684,0.1071630344,
685,0.01094808616,
686,0.1159954146,
687,0.1013236567,
688,0.07901078463,
689,0.04268483818,
690,0.03417419642,
690.9799805,0.09182409942,
691.9699707,0.07185906917,
692.9500122,0.07880885154,
693.9400024,0.06887808442,
695.0700073,0.04354871437,
696.0499878,0.08548422903,
697.039978,0.1192986667,
698.0200195,0.03425960988,
699.0100098,0.1121828854,
700,0.1267628521,
700.9799805,0.03915156797,
701.9699707,0.09871970117,
702.9500122,0.09535358846,
703.9400024,0.02455897816,
705.0700073,0.05898365751,
706.0499878,0.07241721451,
707.039978,0.1177674904,
708.0200195,0.08820513636,
709.0100098,0.1101187989,
710,0.06803046912,
710.9799805,0.06792817265,
711.9699707,0.1162002906,
712.9500122,0.06600174308,
713.9400024,0.04025632516,
715.0700073,0.09495306015,
716.0499878,0.1372306943,
717.039978,0.1334571689,
718.0200195,0.1302349865,
719.0100098,0.1057284772,
720,0.114677608,
720.9699707,0.1035715863,
721.9400024,0.06670396775,
723.0499878,0.1285005063,
724.0200195,0.102881223,
725,0.1171271876,
725.9699707,0.1133817956,
726.9400024,0.1470661163,
728.0499878,0.1320960224,
729.0200195,0.06326505542,
730,0.1165035665,
730.9799805,0.1278329343,
731.9699707,0.08423597366,
732.9500122,0.08894571662,
733.9400024,0.1229783222,
735.0700073,0.08206886798,
736.0499878,0.08122003824,
737.039978,0.08640918136,
738.0200195,0.1165104434,
739.0100098,0.1088282987,
740,0.1263398081,
740.9500122,0.1644819081,
742.0499878,0.155642584,
743.0100098,0.154837817,
743.9699707,0.1271074712,
745.0599976,0.1653193235,
746.0200195,0.1913368106,
746.9799805,0.5007833242,
747.9400024,0.9749316573,
749.039978,2.028143406,
750,4.538626194,

Sample 4,
Sample 4
Collection Time: 22/08/2023 11:56:07 AM
Operator Name  :
Scan Software Version: 1.2(147)
Parameter List :
Instrument                        Cary Eclipse
Instrument Serial Number          test
Data mode                         Fluorescence
Scan mode                         Emission
X Mode                            Wavelength (nm)
Start (nm)                        390.00
Stop (nm)                         750.00
Ex. Wavelength (nm)               378.00
Ex. Slit (nm)                     5
Em. Slit (nm)                     5
Scan rate (nm/min)                120.00
Data interval (nm)                1.0000
Averaging Time (s)                0.5000
Excitation filter                 Auto
Emission filter                   Open
PMT voltage (V)                   High
Corrected spectra                 OFF
Method Log     :
Method Name    : Default
Date/Time stamp: 22/08/2023 11:38:10 AM
Method Modifications:
Overlayed Graphs Changed: 22/08/2023 11:47:15 AM, Old:OFF, New:ON
Scan Control Changed: 22/08/2023 11:47:15 AM, Old:Medium, New:Slow
Ave. time (s): Changed: 22/08/2023 11:47:15 AM, Old:0.10000, New:0.50000
Excitation Wavelength Changed: 22/08/2023 11:47:15 AM, Old: 350.00, New: 340.00
Emission Wavelength Changed: 22/08/2023 11:47:15 AM, Old: 400.00, New: 350.00
Stop Wavelength Changed: 22/08/2023 11:47:15 AM, Old: 600.00, New: 750.00
Excitation Wavelength Changed: 22/08/2023 11:48:29 AM, Old: 340.00, New: 378.00
Emission Wavelength Changed: 22/08/2023 11:48:29 AM, Old: 350.00, New: 390.00
PMT Volts Changed: 22/08/2023 11:52:22 AM, Old:600, New:800
Emission PMT (V): Changed: 22/08/2023 11:52:22 AM, Old: 600, New: 800
End Method Modifications

