Sample 2,,
Wavelength (nm),Intensity (a.u.),
390,13.28219986,
391.0599976,5.414497375,
391.9599915,3.802705526,
393.0299988,3.553779602,
393.9299927,3.631194353,
395,3.554135323,
396.0599976,3.711025,
396.9599915,3.906538725,
398.0299988,3.785064459,
398.9299927,4.247537613,
400,4.839876175,
401.0599976,5.336432457,
401.9599915,5.896107674,
403.0299988,6.646100998,
403.9299927,6.933627129,
405,7.347790241,
406.0599976,7.898751736,
406.9599915,7.618114948,
408.0299988,7.232539177,
408.9299927,7.099246979,
410,6.657743454,
411.0599976,6.507069111,
411.9599915,6.162477016,
413.0299988,5.957984447,
413.9299927,6.082454681,
415,5.648743153,
416.0599976,5.691790581,
416.9599915,6.064595222,
418.0299988,5.914062977,
418.9299927,5.976891518,
420,6.336074352,
421.0599976,6.8540411,
421.9599915,6.757893562,
423.0299988,7.333164215,
423.9299927,8.291804314,
425,9.457679749,
426.0599976,10.6518116,
426.9599915,11.72507286,
428.0299988,13.58080196,
428.9299927,14.93093872,
430,16.2112484,
431.0400085,17.16201591,
431.9400024,17.61850929,
432.980011,17.38184166,
434.019989,17.54937553,
435.0700073,18.15385628,
435.9700012,17.92800331,
437.0100098,18.63399696,
438.0499878,19.84455681,
438.9500122,21.43142319,
440,23.86859894,
441.0599976,26.71419907,
441.9599915,29.05271149,
443.0299988,33.32307053,
443.9299927,35.88032532,
445,40.84208298,
446.0599976,44.64378357,
446.9599915,49.05986404,
448.0299988,54.17669296,
448.9299927,60.1146431,
450,66.90190887,
451.0599976,72.17027283,
451.9599915,76.25461578,
453.0299988,85.02915192,
453.9299927,89.65649414,
455,97.39891815,
456.0599976,104.6504745,
456.9599915,109.5451431,
458.0299988,115.8026047,
458.9299927,121.4251556,
460,131.301178,
461.0400085,136.9915924,
461.9400024,142.7111206,
462.980011,148.2336884,
464.019989,155.3638153,
465.0700073,161.9317932,
465.9700012,165.3118134,
467.0100098,172.5868073,
468.0499878,177.4714508,
468.9500122,182.3829346,
470,187.3049927,
471.0400085,195.1575623,
471.9400024,200.1705017,
472.980011,203.365921,
474.019989,209.3329315,
475.0700073,211.6871643,
475.9700012,214.5679626,
477.0100098,221.0115051,
478.0499878,224.6427155,
478.9500122,231.8082123,
480,236.3470154,
481.0400085,238.2477875,
481.9400024,242.3317719,
482.980011,248.903717,
484.019989,252.0266113,
485.0700073,255.0793304,
485.9700012,260.5236511,
487.0100098,260.03125,
488.0499878,266.0145569,
488.9500122,271.2140503,
490,268.7768555,
491.0400085,274.9404907,
491.9400024,276.6569214,
492.980011,280.600708,
494.019989,279.6917114,
495.0700073,284.2075195,
495.9700012,285.7710571,
497.0100098,283.5026855,
498.0499878,287.1486511,
498.9500122,288.4527893,
500,286.9334412,
501.0400085,287.5581055,
501.9400024,285.4151001,
502.980011,286.7060547,
504.019989,285.1608887,
505.0700073,285.2415771,
505.9700012,285.5065613,
507.0100098,284.0144348,
508.0499878,282.7474976,
508.9500122,282.529541,
510,277.2519531,
511.0400085,277.7230835,
511.9400024,276.1588135,
512.9799805,273.1606445,
514.0200195,273.6831055,
515.0700073,271.2535095,
515.9699707,267.0704651,
517.0100098,265.0924072,
518.0499878,263.5315247,
518.9500122,261.9447021,
520,259.1874695,
521.0200195,254.7964783,
522.0499878,254.7723389,
522.9400024,250.3391266,
523.9699707,247.6496582,
525,247.1861267,
526.0200195,245.8499146,
527.0499878,240.2764587,
527.9400024,240.6477203,
528.9699707,236.6083679,
530,233.5997009,
531.039978,229.5124664,
531.9400024,226.9759064,
532.9799805,225.5615845,
534.0200195,221.9385834,
535.0700073,218.064621,
535.9699707,214.6461639,
537.0100098,213.0531769,
538.0499878,211.1704712,
538.9500122,206.9504852,
540,202.868042,
541.0200195,199.6763763,
542.0499878,198.7845612,
542.9400024,193.6183929,
543.9699707,190.7630463,
545,185.6464539,
546.0200195,184.9253845,
547.0499878,182.5984344,
547.9400024,176.6604919,
548.9699707,176.3240814,
550,171.8232727,
551.0200195,169.4808655,
552.0499878,165.9671936,
552.9400024,164.8453979,
553.9699707,160.2693481,
555,158.1929169,
556.0200195,153.8670502,
557.0499878,153.544281,
557.9400024,150.1347656,
558.9699707,145.4833527,
560,140.6848145,
561.0200195,139.39888,
562.0499878,136.3299255,
562.9400024,134.6526184,
563.9699707,133.3607483,
565,128.6277161,
566.0200195,127.8307266,
567.0499878,124.3052826,
567.9400024,121.9500656,
568.9699707,119.852829,
570,116.8738251,
571.0100098,112.5775604,
572.0200195,111.4556656,
573.039978,109.2607269,
574.0499878,107.4831238,
575.0700073,104.3065643,
575.9400024,102.9410629,
576.9500122,99.74983215,
577.9699707,97.93704987,
578.9799805,95.24934387,
580,93.38199615,
581.0200195,90.628685,
582.0499878,89.58994293,
582.9400024,86.40502167,
583.9699707,85.50157928,
585,83.20337677,
586.0200195,81.26274872,
587.0499878,79.56629181,
587.9400024,78.40366364,
588.9699707,76.45013428,
590,73.56202698,
591.0100098,72.0943985,
592.0200195,71.13885498,
593.039978,68.68962097,
594.0499878,68.0633316,
595.0700073,65.26163483,
595.9400024,64.55799103,
596.9500122,63.20320129,
597.9699707,62.34453201,
598.9799805,60.36962509,
600,58.27560806,
601.0100098,57.43670654,
602.0200195,56.17282867,
603.039978,54.97234726,
604.0499878,52.98545837,
605.0700073,50.92348862,
605.9400024,50.7610321,
606.9500122,48.89630127,
607.9699707,48.23456192,
608.9799805,47.04667282,
610,45.99629211,
611.0100098,43.80717468,
612.0200195,43.32836533,
613.039978,42.1522789,
614.0499878,41.00207138,
615.0700073,40.20809937,
615.9400024,39.46417999,
616.9500122,38.54072952,
617.9699707,36.53020477,
618.9799805,36.38401413,
620,35.37705231,
621.0100098,34.7918663,
622.0200195,33.43906403,
623.039978,31.96255493,
624.0499878,32.25818634,
625.0700073,31.04743958,
625.9400024,30.19159508,
626.9500122,29.67808914,
627.9699707,28.11759567,
628.9799805,27.19033813,
630,25.98668861,
631,26.53886032,
632,25.00174713,
633,24.78915787,
634,23.63034058,
635,23.62011719,
636,22.492136,
637,22.84437943,
638,21.6757431,
639,21.03044891,
640,20.67842674,
641.0100098,19.75801277,
642.0200195,18.85464478,
643.039978,18.26024628,
644.0499878,17.48192215,
645.0700073,17.77098274,
645.9400024,16.8521347,
646.9500122,17.22351074,
647.9699707,16.27516556,
648.9799805,15.50098801,
650,15.10836887,
651,15.02539444,
652,14.11166477,
653,14.43270493,
654,13.72537041,
655,13.15641308,
656,12.9645071,
657,12.67197704,
658,11.90199471,
659,11.77002716,
660,11.39441967,
661,11.23109913,
662,10.89851284,
663,10.31718349,
664,10.02562618,
665,9.973474503,
666,9.884032249,
667,9.608314514,
668,8.969549179,
669,8.869981766,
670,8.109107971,
670.9799805,8.042102814,
671.9699707,8.036685944,
672.9500122,7.92585516,
673.9400024,7.72516489,
675.0700073,7.190295219,
676.0499878,6.950227737,
677.039978,6.752145767,
678.0200195,6.783267498,
679.0100098,6.487899303,
680,6.372663021,
681,6.222784996,
682,6.157818794,
683,5.78442955,
684,5.690290451,
685,5.318338394,
686,5.191819191,
687,5.379806995,
688,5.161973953,
689,4.773045063,
690,5.021348,
690.9799805,4.986413002,
691.9699707,4.334658623,
692.9500122,4.279639721,
693.9400024,4.170762062,
695.0700073,3.97495842,
696.0499878,4.058692932,
697.039978,4.047578335,
698.0200195,3.677686214,
699.0100098,3.68621707,
700,3.885033369,
700.9799805,3.404938459,
701.9699707,3.400868177,
702.9500122,3.490496159,
703.9400024,3.12916851,
705.0700073,3.364415169,
706.0499878,3.311826468,
707.039978,2.975887775,
708.0200195,3.03226614,
709.0100098,3.04526782,
710,3.01377964,
710.9799805,3.027314901,
711.9699707,2.755795956,
712.9500122,2.909451962,
713.9400024,2.657403946,
715.0700073,2.691993237,
716.0499878,2.699496984,
717.039978,2.618244648,
718.0200195,2.524311066,
719.0100098,2.383730412,
720,2.393307924,
720.9699707,2.562966585,
721.9400024,2.220449448,
723.0499878,2.299954653,
724.0200195,2.222875357,
725,2.103330374,
725.9699707,2.09726119,
726.9400024,1.984776974,
728.0499878,2.164816856,
729.0200195,1.844650865,
730,1.974541664,
730.9799805,1.835209727,
731.9699707,1.845230579,
732.9500122,1.614531517,
733.9400024,1.843048453,
735.0700073,1.576229453,
736.0499878,1.628113031,
737.039978,1.545215964,
738.0200195,1.591476917,
739.0100098,1.466405869,
740,1.35453248,
740.9500122,1.47559917,
742.0499878,1.418041229,
743.0100098,1.387177825,
743.9699707,1.354408622,
745.0599976,1.285835505,
746.0200195,1.256641507,
746.9799805,1.188601494,
747.9400024,1.18091464,
749.039978,1.164351344,
750,1.215590596,
750.9699707,1.294285059,
751.9400024,1.463344574,
753.0499878,2.119184971,
754.0200195,3.487069845,
755,5.02559948,
755.9699707,7.190927029,
756.9400024,9.693348885,
758.0499878,13.53272438,
759.0200195,17.85043907,
760,21.9962635,
760.9699707,26.26183319,
761.9400024,29.31409836,
763.0499878,32.81469727,
764.0200195,33.49499893,
765,33.77418518,
765.9699707,32.91931152,
766.9400024,30.35149765,
768.0499878,28.33103943,
769.0200195,22.879879,
770,18.77659035,
770.9500122,14.63811779,
772.0499878,9.236623764,
773.0100098,5.854904175,
773.9699707,3.187325001,
775.0599976,1.913246751,
776.0200195,1.283991456,
776.9799805,1.001002908,
777.9400024,0.8438165784,
779.039978,0.6499943733,
780,0.734308362,
780.9400024,0.6186495423,
782.0200195,0.6574904323,
782.9699707,0.587872088,
784.0499878,0.6318148971,
785,0.5480556488,
785.9400024,0.6230020523,
787.0200195,0.4041646123,
787.9699707,0.5780259371,
789.0499878,0.4849530756,
790,0.487257719,
790.9500122,0.5191426873,
792.0499878,0.6658446789,
793.0100098,0.5486753583,
793.9699707,0.4750709236,
795.0599976,0.525102973,
796.0200195,0.3723472357,
796.9799805,0.434268862,
797.9400024,0.4992167354,
799.039978,0.4283838272,
800,0.4102735519,

Sample 2,
Sample 2
Collection Time: 25/07/2023 3:43:35 PM
Operator Name  :
Scan Software Version: 1.2(147)
Parameter List :
Instrument                        Cary Eclipse
Instrument Serial Number          test
Data mode                         Fluorescence
Scan mode                         Emission
X Mode                            Wavelength (nm)
Start (nm)                        390.00
Stop (nm)                         800.00
Ex. Wavelength (nm)               380.00
Ex. Slit (nm)                     5
Em. Slit (nm)                     5
Scan rate (nm/min)                120.00
Data interval (nm)                1.0000
Averaging Time (s)                0.5000
Excitation filter                 Auto
Emission filter                   Open
PMT voltage (V)                   High
Corrected spectra                 OFF
Method Log     :
Method Name    : Default
Date/Time stamp: 25/07/2023 3:18:52 PM
Method Modifications:
Overlayed Graphs Changed: 25/07/2023 3:40:07 PM, Old:OFF, New:ON
PMT Volts Changed: 25/07/2023 3:40:07 PM, Old:600, New:800
Scan Control Changed: 25/07/2023 3:40:07 PM, Old:Medium, New:Manual
Ave. time (s): Changed: 25/07/2023 3:40:07 PM, Old:0.10000, New:0.50000
Emission PMT (V): Changed: 25/07/2023 3:40:07 PM, Old: 600, New: 800
Excitation Wavelength Changed: 25/07/2023 3:40:35 PM, Old: 350.00, New: 380.00
Emission Wavelength Changed: 25/07/2023 3:40:35 PM, Old: 400.00, New: 390.00
Stop Wavelength Changed: 25/07/2023 3:40:35 PM, Old: 600.00, New: 700.00
Stop Wavelength Changed: 25/07/2023 3:43:33 PM, Old: 700.00, New: 800.00
End Method Modifications

