Normalised Excitation Curve,,
Wavelength (nm),Intensity (a.u.),
220,38.83229828,
220.9299927,34.59804916,
222.0299988,31.2469101,
222.9600067,27.91643906,
224.0599976,25.15844917,
225,22.88505936,
225.9299927,20.90374947,
227.0299988,19.11372948,
227.9600067,17.59633064,
229.0599976,16.25984001,
230,15.06476974,
230.9299927,14.02206039,
232.0299988,13.10951042,
232.9600067,12.24619961,
234.0599976,11.5118103,
235,10.81591988,
235.9299927,10.18976021,
237.0299988,9.623452187,
237.9600067,9.120657921,
239.0599976,8.678384781,
240,8.267787933,
240.9299927,7.873733044,
242.0299988,7.495419025,
242.9600067,7.137103081,
244.0599976,6.814935207,
245,6.507660866,
245.9299927,6.21274519,
247.0299988,5.940259933,
247.9600067,5.692491055,
249.0599976,5.480148792,
250,5.283517838,
250.9299927,5.120538235,
252.0299988,4.979173183,
252.9600067,4.834424019,
254.0599976,4.705970764,
255,4.576659203,
255.9299927,4.45882988,
257.0299988,4.354612827,
257.9599915,4.26777792,
259.0599976,4.186301231,
260,4.104856968,
260.9299927,4.026099205,
262.0299988,3.948858976,
262.9599915,3.881186008,
264.0599976,3.81260705,
265,3.739362955,
265.9299927,3.662740946,
267.0299988,3.594084024,
267.9599915,3.529292107,
269.0599976,3.468693018,
270,3.410681009,
271.0700073,3.356024981,
272,3.296319008,
273.0700073,3.228579044,
274,3.166135073,
275.0700073,3.101799011,
276,3.041400909,
277.0700073,2.986457109,
278,2.935847044,
279.0700073,2.883763075,
280,2.838260889,
280.9299927,2.7964499,
282.0299988,2.758373976,
282.9599915,2.725548029,
284.0599976,2.688659906,
285,2.655045033,
285.9299927,2.626065016,
287.0299988,2.601967096,
287.9599915,2.582238913,
289.0599976,2.567982912,
290,2.555613041,
291.0700073,2.542186022,
292,2.529035091,
293.0700073,2.5173769,
294,2.50739193,
295.0700073,2.494179964,
296,2.481008053,
297.0700073,2.466795921,
298,2.451407909,
299.0700073,2.431289911,
300,2.412806034,
300.9299927,2.394738913,
302.0299988,2.375005007,
302.9599915,2.354820013,
304.0599976,2.331065893,
305,2.310165882,
305.9299927,2.292849064,
307.0299988,2.273627996,
307.9599915,2.256557941,
309.0599976,2.239511013,
310,2.217704058,
311.0700073,2.196613073,
312,2.173897028,
313.0700073,2.15064311,
314,2.125530005,
315.0700073,2.101805925,
316,2.079787016,
317.0700073,2.056899071,
318,2.033931971,
319.0700073,2.010581017,
320,1.988163948,
321.0700073,1.966212988,
322,1.943343043,
323.0700073,1.919237018,
324,1.893638015,
325.0700073,1.868955016,
326,1.844570041,
327.0700073,1.819586039,
328,1.794705987,
329.0700073,1.769525051,
330,1.743020058,
331.0700073,1.718394041,
332,1.691964984,
333.0700073,1.668532968,
334,1.644794941,
335.0700073,1.624729037,
336,1.606910944,
337.0700073,1.588981032,
338,1.573047996,
339.0700073,1.556581974,
340,1.540588021,
341.0700073,1.526584029,
342,1.513699055,
343.0700073,1.500864983,
344,1.489241958,
345.0700073,1.480054975,
346,1.470512033,
347.0700073,1.462365985,
348,1.452955008,
349.0700073,1.445726037,
350,1.436380029,
351.0700073,1.428609014,
352,1.420629025,
353.0700073,1.415773988,
354,1.410578012,
355.0700073,1.406664968,
356,1.402616978,
357.0700073,1.396242976,
358,1.389678955,
359.0700073,1.382670999,
360,1.375843048,
361.0700073,1.368940949,
362,1.362100005,
363.0700073,1.355687976,
364,1.349603057,
365.0700073,1.343716979,
366,1.336065054,
367.0700073,1.329249978,
368,1.321400046,
369.0700073,1.315443993,
370,1.307543993,
371.0700073,1.29954505,
372,1.290575027,
373.0700073,1.282070994,
374,1.270110965,
375.0700073,1.256248951,
376,1.241170049,
377.0700073,1.223999977,
378,1.206115961,
379.0700073,1.188086033,
380,1.168578982,
381.0700073,1.148805022,
382,1.129469991,
383.0700073,1.112422943,
384,1.09632504,
385.0700073,1.080320001,
386,1.066851974,
387.0700073,1.054162025,
388,1.042811036,
389.0700073,1.033195019,
390,1.023797035,
391.0599976,1.015647054,
391.9599915,1.009554029,
393.0299988,1.004868984,
393.9299927,1.001533031,
395,1,
396.0599976,1.000283957,
396.9599915,1.000926018,
398.0299988,1.003185987,
398.9299927,1.006119013,
400,1.009703994,
401.0700073,1.01365602,
402,1.019204974,
403.0700073,1.026005983,
404,1.032968998,
405.0700073,1.039849997,
406,1.047724009,
407.0700073,1.054222941,
408,1.061295033,
409.0700073,1.06922698,
410,1.077728033,
411.0599976,1.087434053,
411.9599915,1.097473979,
413.0299988,1.109091043,
413.9299927,1.121948004,
415,1.134904027,
416.0599976,1.148744941,
416.9599915,1.161757946,
418.0299988,1.173815966,
418.9299927,1.183550954,
420,1.191323996,
421.0599976,1.196478009,
421.9599915,1.200052977,
423.0299988,1.201117992,
423.9299927,1.200618982,
425,1.19798398,
426.0599976,1.194466949,
426.9599915,1.190130949,
428.0299988,1.18482995,
428.9299927,1.180523038,
430,1.176591992,
431.0599976,1.174314976,
431.9599915,1.173377991,
433.0299988,1.174132943,
433.9299927,1.17592895,
435,1.17848599,
436.0599976,1.181504965,
436.9599915,1.185330033,
438.0299988,1.189157009,
438.9299927,1.192957044,
440,1.196138024,
441.0599976,1.198331952,
441.9599915,1.200085998,
443.0299988,1.20174098,
443.9299927,1.202466965,
445,1.202707052,
446.0599976,1.202317953,
446.9599915,1.199902058,
448.0299988,1.196478009,
448.9299927,1.193691015,
450,1.190907955,
451.0599976,1.189375997,
451.9599915,1.187870979,
453.0299988,1.185538054,
453.9299927,1.182389021,
455,1.178271055,
456.0599976,1.174504042,
456.9599915,1.171462059,
458.0299988,1.16753304,
458.9299927,1.163755059,
460,1.159363031,
461.0599976,1.155128002,
461.9599915,1.151988983,
463.0299988,1.148556948,
463.9299927,1.145627022,
465,1.143764019,
466.0599976,1.142779946,
466.9599915,1.142418981,
468.0299988,1.144050956,
468.9299927,1.147447944,
470,1.152559042,
471.0599976,1.159209013,
471.9599915,1.166722059,
473.0299988,1.176254034,
473.9299927,1.187662959,
475,1.201467037,
476.0599976,1.219462037,
476.9599915,1.237483025,
478.0299988,1.255496025,
478.9299927,1.275336981,
480,1.295541048,
481.0400085,1.315981984,
481.9400024,1.335288048,
482.980011,1.354804039,
484.019989,1.37539196,
485.0700073,1.393365979,
485.9700012,1.409350991,
487.0100098,1.422467947,
488.0499878,1.434782028,
488.9500122,1.446879029,
490,1.457577944,
491.0400085,1.467741966,
491.9400024,1.478243947,
492.980011,1.491109967,
494.019989,1.504258037,
495.0700073,1.518969059,
495.9700012,1.534708977,
497.0100098,1.548406005,
498.0499878,1.562698007,
498.9500122,1.578186989,
500,1.594321966,
501.0599976,1.611219049,
501.9599915,1.629567027,
503.0299988,1.648955941,
503.9299927,1.667925954,
505,1.683617949,
506.0599976,1.699372053,
506.9599915,1.714208961,
508.0299988,1.731246948,
508.9299927,1.749698997,
510,1.767802,
511.0400085,1.785359025,
511.9400024,1.802752972,
512.9799805,1.819969058,
514.0200195,1.836016059,
515.0700073,1.852347016,
515.9699707,1.869539022,
517.0100098,1.888911963,
518.0499878,1.910143971,
518.9500122,1.931614041,
520,1.957097054,
521.039978,1.984156013,
521.9400024,2.008497,
522.9799805,2.030426979,
524.0200195,2.050757885,
525.0700073,2.071063042,
525.9699707,2.089903116,
527.0100098,2.10529089,
528.0499878,2.121845961,
528.9500122,2.137557983,
530,2.150315046,
531.0200195,2.161911011,
532.0499878,2.171386957,
532.9400024,2.182837963,
533.9699707,2.192920923,
535,2.204663992,
536.0200195,2.215646029,
537.0499878,2.226517916,
537.9400024,2.237893105,
538.9699707,2.249245882,
540,2.261492014,
541.039978,2.269951105,
541.9400024,2.275578976,
542.9799805,2.28390193,
544.0200195,2.293370008,
545.0700073,2.307497978,
545.9699707,2.320609093,
547.0100098,2.333323002,
548.0499878,2.351211071,
548.9500122,2.368792057,
550,2.389230013,
551.0200195,2.415551901,
552.0499878,2.443833113,
552.9400024,2.477773905,
553.9699707,2.509478092,
555,2.542020082,
556.0200195,2.572830915,
557.0499878,2.60461092,
557.9400024,2.639219999,
558.9699707,2.67217803,
560,2.700591087,
561.039978,2.730384111,
561.9400024,2.759361029,
562.9799805,2.790819883,
564.0200195,2.822885036,
565.0700073,2.854223967,
565.9699707,2.883125067,
567.0100098,2.910367966,
568.0499878,2.937452078,
568.9500122,2.960460901,
570,2.982953072,
571.0200195,3.005224943,
572.0499878,3.026139021,
572.9400024,3.047648907,
573.9699707,3.070277929,
575,3.092052937,
576.0200195,3.116447926,
577.0499878,3.140945911,
577.9400024,3.168793917,
578.9699707,3.194231987,
580,3.221829891,
581.0200195,3.256854057,
582.0499878,3.29082799,
582.9400024,3.328547955,
583.9699707,3.367322922,
585,3.404253006,
586.0200195,3.443402052,
587.0499878,3.483937979,
587.9400024,3.523441076,
588.9699707,3.564492941,
590,3.600651026,
591.0100098,3.634474039,
592.0200195,3.665605068,
593.039978,3.69809103,
594.0499878,3.730634928,
595.0700073,3.764286995,
595.9400024,3.80173707,
596.9500122,3.838181973,
597.9699707,3.876405001,
598.9799805,3.911683083,
600,3.947756052,

Normalised Excitation Curve,
Normalised Excitation Curve
Collection Time: 8/02/2019 4:40:24 PM
Operator Name  :
Scan Software Version: 1.1(132)
Parameter List :
Instrument                        Cary Eclipse
Instrument Serial Number
Data mode                         Fluorescence
Scan mode                         Emission
X Mode                            Wavelength (nm)
Start (nm)                        400.00
Stop (nm)                         600.00
Ex. Wavelength (nm)               350.00
Ex. Slit (nm)                     5
Em. Slit (nm)                     5
Data interval (nm)                1.0000
Averaging Time (s)                0.1000
Excitation filter                 Auto
Emission filter                   Open
PMT voltage (V)                   Medium
Corrected spectra                 OFF
Method Log     :
Method Name    : C:\Varian\Cary Eclipse WinFLR\Default.FMSW
Date/Time stamp: 8/02/2019 4:40:22 PM
Method Modifications: None
Version NO: 0.00999999977648258
Low Wavelength: 220.00
High Wavelength: 600.00
Number Of Points: 381
Correction Type: Excitation

