sample14,,
Wavelength (nm),Abs,
599.9821167,0.0001548515866,
598.9819336,-9.328300803E-005,
597.9815674,-1.967289063E-005,
597.0178833,0.000214388725,
596.0169678,6.339936226E-005,
595.0157471,6.407249748E-005,
594.0143433,9.4856543E-005,
593.0125732,0.0002543005394,
592.0105591,0.0001863153884,
591.0083008,-4.245091259E-005,
590.0057983,2.671514085E-005,
589.0030518,-1.734325269E-005,
588.000061,0.0001753869583,
586.9967651,0.0001821977785,
585.9931641,0.0001998079679,
584.9893799,2.244371535E-005,
583.9853516,0.0003791101044,
583.0182495,0.0005103568546,
582.0136108,0.0009242835804,
581.0088501,0.0004952219315,
580.0037842,0.000678690616,
578.9984741,0.0008436401258,
577.9928589,0.0007678349502,
576.9870605,0.0008922474808,
576.0181885,0.001007562503,
575.0119019,0.00132873829,
574.005249,0.001185796922,
572.9984741,0.001647761092,
571.991333,0.001760210027,
570.9840698,0.00230261893,
570.0137939,0.002829890233,
569.0059204,0.003181960434,
567.9978638,0.004088223446,
566.989563,0.004671488423,
566.0183105,0.005117270164,
565.0095215,0.005805349443,
564.0004272,0.006902725901,
562.9911499,0.007836060598,
561.9816284,0.009036130272,
561.0092163,0.009934470057,
559.9990845,0.01037431601,
558.9888306,0.01106018666,
558.015686,0.0113533847,
557.0049438,0.01119977515,
555.9938965,0.01109292824,
554.982666,0.01038902998,
554.008606,0.009283587337,
552.9968872,0.008822626434,
551.9849243,0.008223554119,
551.0101929,0.00726253679,
549.9977417,0.006802216172,
548.9850464,0.00639841333,
548.0096436,0.005927802064,
546.99646,0.005911217537,
545.9830933,0.0055090026,
545.006897,0.005283416715,
543.993103,0.00496516889,
543.0164795,0.005329300184,
542.0021362,0.005185167305,
540.9875488,0.005247048568,
540.010376,0.005315070506,
538.9952393,0.005208404269,
538.0175781,0.005288840737,
537.0020752,0.005257764831,
535.9863281,0.004929979797,
535.0079956,0.004834218416,
533.9917603,0.004521008115,
533.0130005,0.00431833975,
531.9962769,0.003910831176,
531.0170288,0.003813962685,
529.999939,0.003484107554,
528.982605,0.003209837014,
528.0026855,0.003043334698,
526.9848633,0.002883541165,
526.0045166,0.002915620338,
524.9862061,0.002847894793,
524.0054321,0.002828014316,
522.9866943,0.002820406342,
522.0054932,0.003029571148,
520.9863892,0.003158518579,
520.0046387,0.002734512789,
518.9850464,0.002829317003,
518.0029907,0.002997640055,
516.9829102,0.002993339207,
516.0004272,0.00300824875,
515.0177002,0.002951611066,
513.9970093,0.003043647623,
513.013855,0.002991462592,
511.9926453,0.002783436328,
511.0090637,0.003008431057,
509.9874268,0.002823350485,
509.003479,0.002784113633,
507.9814148,0.002406153129,
506.9970093,0.002612175653,
506.0123901,0.002435906092,
504.9896545,0.002471518703,
504.0046082,0.002506795805,
502.9814453,0.002363023814,
501.9960022,0.002584754024,
501.010376,0.002391602611,
499.9865723,0.002436478855,
499.0004883,0.001935503329,
498.0142517,0.002127229469,
496.9897156,0.00201640185,
496.0031128,0.001854567905,
495.0162354,0.001938597532,
493.9911194,0.001646383898,
493.0038452,0.001538120909,
492.0162964,0.001531886286,
490.9906006,0.001602394739,
490.0027161,0.001428871881,
489.0145874,0.001489441143,
487.9882813,0.001330633764,
486.9997559,0.001361897215,
486.0110168,0.001335515175,
484.9840698,0.001444299123,
483.9949341,0.001324531855,
483.0055847,0.001236000098,
482.0161133,0.001254379982,
480.9883118,0.001203759341,
479.9984436,0.00111234549,
479.0083313,0.001143567264,
478.0179749,0.001137597836,
476.9894409,0.0008651159005,
475.9987488,0.0008058266249,
475.0078125,0.0008915989893,
474.0167236,0.0007684573065,
472.9872742,0.0008413577452,
471.9957886,0.0008137106779,
471.0041504,0.0007126556011,
470.0122986,0.0007825384964,
468.9820557,0.0007396480069,
467.9898071,0.0006285258569,
466.9973755,0.000663809129,
466.0046997,0.0004618699895,
465.0119324,0.0005047589657,
464.0189209,0.0005295613664,
462.9874878,0.0006240929361,
461.9941406,0.0006116759032,
461.0005188,0.0005075319787,
460.0067444,0.0005370774888,
459.0128174,0.0003430209763,
458.0186462,0.0004502090742,
456.9860229,0.0003540831385,
455.9915161,0.0004642021959,
454.9967957,0.0003268815635,
454.0018616,0.0001793491247,
453.0068054,0.0003078414593,
452.0115051,0.0002567352494,
451.0160828,0.0002011028701,
449.9821777,0.0002963141887,
448.9863586,0.0001123596376,
447.9902954,0.0002972208313,
446.9941406,0.0002580044093,
445.9977722,0.0001217587778,
445.0011902,0.000403931248,
444.004425,0.0001720722357,
443.0075684,4.157485455E-005,
442.010437,0.0001039187118,
441.0131531,8.856492786E-005,
440.0157471,0.0002287109673,
439.0180664,0.0002380349324,
437.9819031,0.0001821459737,
436.9838867,0.0001770961244,
435.9857483,9.07915819E-005,
434.9873657,0.0001248918707,
433.9888306,5.692697596E-005,
432.9901428,7.297867705E-005,
431.9912415,0.0001430953125,
430.992157,0.0002306793467,
429.9929504,5.467460505E-005,
428.9935608,0.0001737036946,
427.9938965,0.000101407175,
426.9941711,0.0002153987734,
425.9942322,0.0001638632093,
424.9941101,7.023430953E-005,
423.9938354,4.242917566E-005,
422.9933472,9.568507812E-005,
421.9927368,3.820937127E-005,
420.9919434,-0.0001346896897,
419.9909973,-1.346068302E-006,
418.9898376,-8.956452803E-006,
417.9885559,8.349027485E-005,
416.9870605,0.0001452186698,
415.9853821,-1.698086271E-005,
414.9835815,-0.0002169737563,
413.9815979,0.0002955370874,
413.0179749,0.0001263677987,
412.0156555,0.0001081909359,
411.0132141,7.315990661E-005,
410.0105591,0.0001294750255,
409.0077209,0.0002516068344,
408.0047302,0.0001949133002,
407.0016174,0.000157078568,
405.99823,4.144541163E-005,
404.9947815,6.0033708E-005,
403.9911194,-0.0001453512668,
402.9873352,0.0002251886326,
401.9833374,8.009857265E-005,
401.0177917,-2.583342757E-005,
400.0135193,-1.423704907E-005,
399.0090332,-9.638864867E-005,
398.0043945,2.355686956E-005,
396.9996338,0.000128931264,
395.9946899,-2.909485374E-005,
394.989563,3.857180491E-005,
393.984314,0.0001427845855,
393.0175476,0.0003671146114,
392.0119629,-0.0001395547151,
391.0062256,7.681045827E-005,
390.0003357,0.0001588394662,
388.9942627,0.0002658266749,
387.9880371,0.0002100636484,
386.9816589,-7.319934957E-005,
386.0138245,7.714086678E-006,
385.0071411,5.280769528E-006,
384.0003052,-4.612634439E-005,
382.9932861,1.247721593E-005,
381.986145,0.0001725383627,
381.0176086,0.0002432408946,
380.0101318,0.0002520471462,
379.002533,-0.0001213882279,
377.994751,-0.0001494916214,
376.9868164,0.0002583152382,
376.0175171,0.0002120060526,
375.0093079,4.097942292E-005,
374.0009155,9.206026152E-005,
372.9924011,0.0001088382487,
371.9837036,7.227963943E-005,
371.0137024,0.0001192989293,
370.0046997,0.0001886720274,
368.995575,0.0001121266032,
367.9863281,0.0001927897101,
367.015686,-7.407932571E-005,
366.006134,0.0001948097051,
364.9963989,0.0001039187118,
363.9865417,0.0002984901075,
363.0153503,0.0003037486167,
362.005188,5.449338278E-005,
360.994873,0.0001581402757,
359.984436,-2.117420627E-005,
359.0126953,0.0001876102469,
358.0019836,0.0001300705771,
356.9910889,0.0001248918707,
356.0189209,0.0002568388591,
355.0077515,0.0005845100386,
353.99646,0.0003465183545,
352.9849854,0.0003246795968,
352.0122986,0.0001647177705,
351.0005798,0.0002454683417,
349.988678,0.0004573092156,
349.015564,0.000239847941,
348.0033875,0.0006734794588,
346.9910889,0.0005442827824,
346.0176086,0.0002952780633,
345.0050354,0.0002964696323,
343.9923096,0.00032382473,
343.0184021,0.0003482541069,
342.0053711,0.0006180010387,
340.9922485,0.0007859356701,
340.0179749,0.000488872698,
339.0045776,0.000558175263,
337.9910278,0.001063454081,
337.0162964,0.000612583186,
336.0024719,0.0009534423589,
334.9885559,0.0008974612574,
334.0134888,0.0009606804815,
332.9992371,0.0009870656068,
331.9848938,0.0008844398544,
331.0094299,0.0007840425824,
329.9947815,0.0009828365874,
329.0190735,0.001146396389,
328.0041809,0.001331672305,
326.9891968,0.001244411222,
326.0130615,0.001251550275,
324.9978027,0.001250771456,
323.9823914,0.001591456588,
323.0059509,0.001839880017,
321.9902344,0.002096092794,
321.0135193,0.001799926162,
319.9975891,0.002080772538,
318.9815369,0.002155324444,
318.0044556,0.002471440705,
316.9881592,0.002935218159,
316.0108032,0.00324689527,
314.9942322,0.003536795499,
314.0166626,0.003474896308,
312.9998169,0.003823860083,
311.9829102,0.004025252536,
311.0049438,0.004520929419,
309.9877319,0.004813932814,
309.009552,0.004866572563,
307.992157,0.005204815418,
307.0137329,0.005129423924,
305.9960327,0.005355349276,
305.0173645,0.005477072205,
303.9994812,0.005324399564,
302.9813843,0.005545497406,
302.0023804,0.005330794025,
300.9841003,0.005359752104,
300.0048828,0.0051977681,
298.9863281,0.005128402263,
298.0068665,0.005062111653,
296.9880676,0.004825816024,
296.0083618,0.004936891608,
294.9893494,0.004687109496,
294.0094604,0.00472316891,
292.9902039,0.004468383733,
292.0100403,0.004438020289,
290.9906006,0.004239651375,
290.0101929,0.004193699919,
288.990509,0.00411001686,
288.0098877,0.004031732213,
286.9899597,0.003634281224,
286.0091553,0.003587036394,
284.9889832,0.003621229669,
284.0079346,0.003486951813,
282.9875488,0.003403822426,
282.0062866,0.003495954676,
280.9856567,0.003428921336,
280.0042114,0.00326564745,
278.9833374,0.003412979888,
278.0016785,0.00331716123,
276.9805908,0.003214452881,
275.9986877,0.003342907177,
275.0167236,0.003064528573,
273.9953003,0.003246478038,
273.0130615,0.003090390004,
271.9914856,0.003120815847,
271.0090637,0.003190930933,
269.9872437,0.003016381292,
269.0046082,0.003132313956,
267.9825745,0.003073053434,
266.9997559,0.003140657442,
266.0167847,0.003034836613,
264.9944153,0.002882108092,
264.0112915,0.00283669075,
262.9887085,0.00272047217,
262.0053711,0.002549288329,
260.9825745,0.002509581624,
259.9990234,0.002460142132,
259.0153809,0.00230873446,
257.9922791,0.002232881263,
257.0084534,0.002212300431,
255.9851532,0.002339417813,
255.0011292,0.002566083334,
254.016983,0.00240672566,
252.9933929,0.002478339709,
252.0090332,0.002566239564,
250.98526,0.002420677803,
250.0007477,0.002733079949,
249.0161285,0.002531296341,
247.9920197,0.002534550847,
247.0072021,0.002615977777,
245.9829254,0.002626134316,
244.9979248,0.002854956081,
244.0128479,0.003071072046,
242.9882507,0.003229004797,
242.0029602,0.003458796768,
241.0176086,0.003709857352,
239.9927521,0.004037662875,
239.0071869,0.004360591527,
237.9820862,0.004569557961,
236.9963837,0.005261171144,
236.0105286,0.005689671263,
234.9851837,0.006251535844,
233.9991913,0.006708091591,
233.013092,0.007083422504,
231.9874573,0.007668671664,
231.0012207,0.007993415929,
230.0148621,0.008044227958,
228.9889374,0.008404115215,
228.0024109,0.008632648736,
227.0157928,0.008936261758,
225.9896393,0.009165314026,
225.0028229,0.009335237555,
224.015976,0.009481390007,
222.989502,0.009558546357,
222.0024567,0.01018689107,
221.0153351,0.01068724133,
219.9886322,0.01134302188,
219.0013275,0.01226912998,
218.0139313,0.0136594018,
216.9869843,0.01326521579,
215.9994202,0.01541631669,
215.011795,0.01649840362,
213.9845581,0.01816789992,
212.9967804,0.01865370199,
212.0088959,0.0209804941,
210.9814148,0.02273700573,
209.9933624,0.02537132055,
209.0052643,0.02694240399,
208.0170441,0.03087582812,
206.9892578,0.03325622156,
206.000885,0.0358870253,
205.0124664,0.03937637806,
203.9843903,0.04269162938,
202.9958191,0.04620924592,
202.0071411,0.05202556401,
201.0183868,0.05795180425,
199.9900208,0.06199201941,

sample14,
sample14
Collection Time: 15/04/2023 3:59:44 PM
Operator Name  :
Scan Version 5.0.0.999
Parameter List :
Instrument  Cary 60
Instrument Version  2.00
Start (nm)  600.0
Stop (nm)  200.0
X Mode  Nanometers
Y Mode  Abs
UV-Vis Scan Rate (nm/min)  600.000
UV-Vis Data Interval (nm)  1.00
UV-Vis Ave. Time (sec)  0.1000
Beam Mode  Dual Beam
Baseline Correction  On
Baseline Type  Baseline correction
Baseline File Name
Baseline Std Ref File Name
Cycle Mode  Off
Method Log     :
Method Name    :
Date/Time stamp: 15/04/2023 12:07:08 PM
Method Modifications:
Common Interval nm Changed: 15/04/2023 12:07:25 PM, Old:     5.00, New:     1.00
Baseline Correction Changed: 15/04/2023 12:07:25 PM, Old:0, New:1
Storage Changed: 15/04/2023 12:07:25 PM, Old:1, New:0
UVVIS SAT Changed: 15/04/2023 2:59:24 PM, Old:0.0125, New:0.1000
Common SAT Changed: 15/04/2023 2:59:24 PM, Old:0.0125, New:0.1000
X Start nm Changed: 15/04/2023 3:50:04 PM, Old:  800.0, New:  500.0
X Start nm Changed: 15/04/2023 3:57:08 PM, Old:  500.0, New:  600.0
End Method Modifications
<Current Wavelength> , 203.0

