Sample 54,,
Wavelength (nm),Intensity (a.u.),
220,2.195550442,
220.9299927,0.3903708458,
222.0299988,-0.8539709449,
222.9600067,1.264222503,
224.0599976,0.480505228,
225,0.5579791069,
225.9299927,0.5501414537,
227.0299988,0.4932826161,
227.9600067,0.2422069907,
229.0599976,0.1121176779,
230,0.08938348293,
230.9299927,0.5095895529,
232.0299988,0.509385407,
232.9600067,-0.0827357918,
234.0599976,0.4304037094,
235,-0.1153269559,
235.9299927,0.338457197,
237.0299988,0.05480352789,
237.9600067,0.3054080606,
239.0599976,0.2948924601,
240,0.2004108429,
240.9299927,0.2511300743,
242.0299988,0.1310873628,
242.9600067,0.109586373,
244.0599976,0.07859693468,
245,0.09419940412,
245.9299927,0.1849264354,
247.0299988,0.1173743382,
247.9600067,0.1307478845,
249.0599976,0.1666092724,
250,0.1928872764,
250.9299927,0.2266394794,
252.0299988,0.283544004,
252.9600067,0.3379248083,
254.0599976,0.4359901845,
255,0.8051530123,
255.9299927,1.156745672,
257.0299988,1.225655556,
257.9599915,1.485301137,
259.0599976,1.794952035,
260,1.94742763,
261.0700073,2.348088503,
262,3.069493771,
263.0700073,3.90892005,
264,4.656461716,
265.0700073,5.702013493,
266,6.424547195,
267.0700073,6.998833656,
268,7.522598267,
269.0700073,7.810197353,
270,8.050229073,
270.9299927,8.187456131,
272.0299988,8.406202316,
272.9599915,8.565734863,
274.0599976,8.669822693,
275,9.172231674,
275.9299927,9.579950333,
277.0299988,9.785635948,
277.9599915,10.10714626,
279.0599976,10.22732449,
280,10.82494831,
280.9299927,11.08866692,
282.0299988,11.2739296,
282.9599915,11.47539711,
284.0599976,11.70148468,
285,11.9149189,
285.9299927,11.91281128,
287.0299988,12.13956928,
287.9599915,12.22888565,
289.0599976,12.75585842,
290,13.12438011,
291.0700073,13.20595455,
292,14.14702988,
293.0700073,14.6000061,
294,15.01254559,
295.0700073,15.2799654,
296,15.30909538,
297.0700073,15.24551105,
298,15.73737335,
299.0700073,16.02848053,
300,16.29104233,
300.9299927,16.22880936,
302.0299988,16.79841995,
302.9599915,17.17083359,
304.0599976,17.66525269,
305,19.45685959,
305.9299927,22.19911003,
307.0299988,26.40943718,
307.9599915,28.17908096,
309.0599976,28.33716583,
310,27.65856934,
311.0700073,24.67324448,
312,21.57692528,
313.0700073,18.79561615,
314,17.39172745,
315.0700073,15.71432304,
316,15.37142754,
317.0700073,14.60428524,
318,14.66941547,
319.0700073,13.84261608,
320,13.80502987,
321.0700073,12.65048504,
322,12.32851696,
323.0700073,11.50959587,
324,11.24534988,
325.0700073,10.49385452,
326,9.584079742,
327.0700073,9.355034828,
328,8.633622169,
329.0700073,8.190984726,
330,7.889899254,
330.9299927,7.836808681,
332.0299988,7.07591629,
332.9599915,6.489392757,
334.0599976,6.630445004,
335,6.238087177,
335.9299927,5.81681776,
337.0299988,5.735367775,
337.9599915,5.380269051,
339.0599976,4.870619297,
340,4.745071888,
341.0700073,4.369538307,
342,4.07838726,
343.0700073,3.94717741,
344,3.823546171,
345.0700073,3.611142874,
346,3.409665585,
347.0700073,3.265585899,
348,3.042310476,
349.0700073,3.102229118,
350,2.852220297,
351.0700073,2.643454075,
352,2.466831207,
353.0700073,2.391254663,
354,2.321781874,
355.0700073,2.237443924,
356,2.133733034,
357.0700073,1.942054749,
358,1.901786923,
359.0700073,1.716586232,
360,1.639356375,
361.0700073,1.546537042,
362,1.393949747,
363.0700073,1.293074489,
364,1.304886818,
365.0700073,1.281229973,
366,1.168159246,
367.0700073,1.070749164,
368,1.026957631,
369.0700073,0.9856168032,
370,0.9078975916,
371.0599976,0.7928872705,
371.9599915,0.6511237025,
373.0299988,0.6162899137,
373.9299927,0.5489189029,
375,0.5038089752,
376.0599976,0.6005904078,
376.9599915,0.5226271749,
378.0299988,0.4536967576,
378.9299927,0.4540006518,
380,0.40562585,
381.0700073,0.2990088761,
382,0.3747995496,
383.0700073,0.3013215065,
384,0.2170646191,
385.0700073,0.2046697438,
386,0.203803286,
387.0700073,0.1761338711,
388,0.2614769638,
389.0700073,0.1902641058,
390,0.1125969514,
391.0700073,0.1100508794,
392,0.1337571144,
393.0700073,0.1483488232,
394,0.08647987247,
395.0700073,0.100982219,
396,0.02842059545,
397.0700073,0.1358171105,
398,0.1355090737,
399.0700073,0.07082805037,
400,0.1626913399,
401.0599976,0.1353482157,
401.9599915,0.09002752602,
403.0299988,0.006247422658,
403.9299927,0.1535004228,
405,0.1929559112,
406.0599976,0.08823511004,
406.9599915,0.07995767891,
408.0299988,0.162985906,
408.9299927,0.1199351102,
410,0.174210608,
411.0700073,0.1313330829,
412,0.1851123422,
413.0700073,0.1849388182,
414,0.1085805744,
415.0700073,0.1773381531,
416,0.1238418445,
417.0700073,0.1162964553,
418,0.1949535906,
419.0700073,0.1276804209,
420,0.1364553422,
421.0599976,0.1580626816,
421.9599915,0.1186950654,
423.0299988,0.1255662143,
423.9299927,0.1404151469,
425,0.1496020555,
426.0599976,0.1938114315,
426.9599915,0.186434418,
428.0299988,0.166350469,
428.9299927,0.2674225867,
430,0.2337451428,
431.0599976,0.2355235666,
431.9599915,0.2673378885,
433.0299988,0.2565595806,
433.9299927,0.2740768194,
435,0.3295647502,
436.0599976,0.3276540041,
436.9599915,0.348726362,
438.0299988,0.3809637427,
438.9299927,0.4240711629,
440,0.4199064076,
441.0599976,0.4374359846,
441.9599915,0.4482600093,
443.0299988,0.5507057905,
443.9299927,0.5448960662,
445,0.5710161328,
446.0599976,0.5914711952,
446.9599915,0.6687511206,
448.0299988,0.6811753511,
448.9299927,0.7272698879,
450,0.7660254836,
451.0599976,0.8595481515,
451.9599915,0.9608692527,
453.0299988,0.9999910593,
453.9299927,0.9926743507,
455,1.113919258,
456.0599976,1.275260329,
456.9599915,1.196885467,
458.0299988,1.407275677,
458.9299927,1.402797341,
460,1.564802766,
461.0599976,1.55447638,
461.9599915,1.623584628,
463.0299988,1.721718788,
463.9299927,1.895187855,
465,1.970027804,
466.0599976,2.128422737,
466.9599915,2.255384684,
468.0299988,2.506075382,
468.9299927,2.612357855,
470,2.640259266,
471.0400085,2.953460455,
471.9400024,3.154261112,
472.980011,3.316979408,
474.019989,3.697202682,
475.0700073,3.692970514,
475.9700012,3.866121054,
477.0100098,4.171355247,
478.0499878,4.60471344,
478.9500122,5.014297962,
480,5.372900009,
481.0599976,5.78307724,
481.9599915,6.091677666,
483.0299988,6.310198307,
483.9299927,6.274903297,
485,6.503398418,
486.0599976,6.763775826,
486.9599915,6.812992573,
488.0299988,7.357257366,
488.9299927,7.430505753,
490,7.664963245,
491.0400085,7.682554245,
491.9400024,7.821473122,
492.980011,8.160944939,
494.019989,8.54456234,
495.0700073,8.725366592,
495.9700012,9.157608986,
497.0100098,9.638753891,
498.0499878,9.952659607,
498.9500122,10.22904587,
500,10.60834217,
501.0599976,11.35412788,
501.9599915,11.73494244,
503.0299988,12.67467308,
503.9299927,12.92054939,
505,13.66194534,
506.0599976,14.07484055,
506.9599915,14.9094038,
508.0299988,14.98991871,
508.9299927,15.5835104,
510,15.90009403,
511.0400085,16.26704216,
511.9400024,16.11176872,
512.9799805,16.64721489,
514.0200195,16.59314537,
515.0700073,17.32735062,
515.9699707,17.3813343,
517.0100098,17.65676308,
518.0499878,18.05258369,
518.9500122,17.98149872,
520,18.24048042,
521.039978,18.03950691,
521.9400024,18.84799385,
522.9799805,19.2944622,
524.0200195,19.8220005,
525.0700073,20.11276054,
525.9699707,20.86334419,
527.0100098,20.56442642,
528.0499878,20.73770332,
528.9500122,20.40501404,
530,20.34539986,
531.0200195,20.16981888,
532.0499878,20.284935,
532.9400024,20.75300789,
533.9699707,21.29738426,
535,21.25364304,
536.0200195,21.62870979,
537.0499878,22.51081467,
537.9400024,23.97772026,
538.9699707,25.06650925,
540,26.46627617,
541.039978,27.24983025,
541.9400024,27.94880295,
542.9799805,28.48496628,
544.0200195,29.72336578,
545.0700073,30.63335037,
545.9699707,32.00122833,
547.0100098,33.70953369,
548.0499878,34.68310928,
548.9500122,35.66190338,
550,36.55405045,
551.0200195,37.6086235,
552.0499878,39.06628036,
552.9400024,40.16019058,
553.9699707,40.7773056,
555,42.48109436,
556.0200195,42.30355453,
557.0499878,45.3928833,
557.9400024,45.9634552,
558.9699707,48.23788071,
560,51.96621704,
561.039978,54.36278152,
561.9400024,57.29301834,
562.9799805,59.9803009,
564.0200195,63.3959465,
565.0700073,64.01233673,
565.9699707,65.25222015,
567.0100098,66.10918427,
568.0499878,66.88201904,
568.9500122,65.80670929,
570,66.60334015,
571.0200195,65.63100433,
572.0499878,63.9104538,
572.9400024,61.15404892,
573.9699707,56.97451782,
575,52.55305481,
576.0200195,48.06486893,
577.0499878,43.20521927,
577.9400024,39.52899933,
578.9699707,33.77380753,
580,29.65561867,
581.0200195,25.10943604,
582.0499878,21.18221855,
582.9400024,18.0764389,
583.9699707,15.40175343,
585,12.9475975,
586.0200195,10.95697212,
587.0499878,9.269446373,
587.9400024,7.814333916,
588.9699707,6.944128513,
590,5.645287514,
591.0200195,4.577592373,
592.0499878,4.01148653,
592.9400024,3.072657824,
593.9699707,3.054129601,
595,2.678905249,
596.0200195,2.418451071,
597.0499878,2.121824741,
597.9400024,1.589414597,
598.9699707,1.504235625,
600,1.680455089,
601.0100098,1.38783741,
602.0200195,0.7976765037,
603.039978,1.11387372,
604.0499878,0.7690576315,
605.0700073,0.6385576129,
605.9400024,0.593570888,
606.9500122,0.5329374075,
607.9699707,0.4928827882,
608.9799805,0.4162702262,
610,0.3730338216,
611.0200195,0.6441867352,
612.0499878,0.4963002801,

Sample 54,
Sample 54
Collection Time: 21/05/2023 5:13:13 PM
Operator Name  :
Scan Software Version: 1.2(147)
Parameter List :
Instrument                        Cary Eclipse
Instrument Serial Number          test
Data mode                         Fluorescence
Scan mode                         Excitation
X Mode                            Wavelength (nm)
Start (nm)                        220.00
Stop (nm)                         612.00
Em. Wavelength (nm)               622.00
Ex. Slit (nm)                     5
Em. Slit (nm)                     5
Scan rate (nm/min)                600.00
Data interval (nm)                1.0000
Averaging Time (s)                0.1000
Excitation filter                 Auto
Emission filter                   Open
PMT voltage (V)                   Medium
Corrected spectra                 OFF
Method Log     :
Method Name    : Default
Date/Time stamp: 21/05/2023 11:47:26 AM
Method Modifications:
Overlayed Graphs Changed: 21/05/2023 1:20:46 PM, Old:OFF, New:ON
Excitation Wavelength Changed: 21/05/2023 1:20:46 PM, Old: 350.00, New: 341.00
Emission Wavelength Changed: 21/05/2023 1:20:46 PM, Old: 400.00, New: 351.00
Stop Wavelength Changed: 21/05/2023 1:20:46 PM, Old: 600.00, New: 650.00
PMT Volts Changed: 21/05/2023 1:21:47 PM, Old:600, New:800
Emission PMT (V): Changed: 21/05/2023 1:21:47 PM, Old: 600, New: 800
Scan mode: Changed: 21/05/2023 1:22:38 PM, Old:Emission, New:Excitation
Excitation Wavelength Changed: 21/05/2023 1:22:38 PM, Old: 341.00, New: 220.00
Emission Wavelength Changed: 21/05/2023 1:22:38 PM, Old: 351.00, New: 381.00
Stop Wavelength Changed: 21/05/2023 1:22:38 PM, Old: 650.00, New: 371.00
Scan mode: Changed: 21/05/2023 1:24:38 PM, Old:Excitation, New:Emission
Excitation Wavelength Changed: 21/05/2023 1:24:38 PM, Old: 220.00, New: 381.00
Emission Wavelength Changed: 21/05/2023 1:24:38 PM, Old: 381.00, New: 220.00
Excitation Wavelength Changed: 21/05/2023 1:24:52 PM, Old: 381.00, New: 339.00
Emission Wavelength Changed: 21/05/2023 1:24:52 PM, Old: 220.00, New: 349.00
Stop Wavelength Changed: 21/05/2023 1:24:52 PM, Old: 371.00, New: 650.00
User Delta Stop Changed: 21/05/2023 1:31:08 PM, Old: 450.00, New: 553.00
User Delta Increment Changed: 21/05/2023 1:31:08 PM, Old:  10.00, New:   0.15
Excitation Wavelength Changed: 21/05/2023 1:31:08 PM, Old: 339.00, New: 553.00
Emission Wavelength Changed: 21/05/2023 1:31:08 PM, Old: 349.00, New: 563.00
Stop Wavelength Changed: 21/05/2023 1:31:08 PM, Old: 650.00, New: 850.00
PMT Volts Changed: 21/05/2023 1:31:49 PM, Old:800, New:600
Emission PMT (V): Changed: 21/05/2023 1:31:49 PM, Old: 800, New: 600
Scan mode: Changed: 21/05/2023 1:33:46 PM, Old:Emission, New:Excitation
User Delta Stop Changed: 21/05/2023 1:33:46 PM, Old: 553.00, New: 630.00
Excitation Wavelength Changed: 21/05/2023 1:33:46 PM, Old: 553.00, New: 220.00
Emission Wavelength Changed: 21/05/2023 1:33:46 PM, Old: 563.00, New: 630.00
Stop Wavelength Changed: 21/05/2023 1:33:46 PM, Old: 850.00, New: 620.00
Scan mode: Changed: 21/05/2023 1:43:42 PM, Old:Excitation, New:Emission
Excitation Wavelength Changed: 21/05/2023 1:43:42 PM, Old: 220.00, New: 352.00
Emission Wavelength Changed: 21/05/2023 1:43:42 PM, Old: 630.00, New: 362.00
Stop Wavelength Changed: 21/05/2023 1:43:42 PM, Old: 620.00, New: 650.00
Scan mode: Changed: 21/05/2023 1:45:14 PM, Old:Emission, New:Excitation
Excitation Wavelength Changed: 21/05/2023 1:45:14 PM, Old: 352.00, New: 220.00
Emission Wavelength Changed: 21/05/2023 1:45:14 PM, Old: 362.00, New: 377.00
Stop Wavelength Changed: 21/05/2023 1:45:14 PM, Old: 650.00, New: 367.00
Scan mode: Changed: 21/05/2023 1:48:20 PM, Old:Excitation, New:Emission
Excitation Wavelength Changed: 21/05/2023 1:48:20 PM, Old: 220.00, New: 350.00
Emission Wavelength Changed: 21/05/2023 1:48:20 PM, Old: 377.00, New: 360.00
Stop Wavelength Changed: 21/05/2023 1:48:20 PM, Old: 367.00, New: 550.00
Excitation Wavelength Changed: 21/05/2023 1:48:48 PM, Old: 350.00, New: 340.00
Emission Wavelength Changed: 21/05/2023 1:48:48 PM, Old: 360.00, New: 350.00
PMT Volts Changed: 21/05/2023 1:49:10 PM, Old:600, New:800
Emission PMT (V): Changed: 21/05/2023 1:49:10 PM, Old: 600, New: 800
Excitation Wavelength Changed: 21/05/2023 2:04:44 PM, Old: 340.00, New: 470.00
Emission Wavelength Changed: 21/05/2023 2:04:44 PM, Old: 350.00, New: 480.00
Stop Wavelength Changed: 21/05/2023 2:04:44 PM, Old: 550.00, New: 700.00
PMT Volts Changed: 21/05/2023 2:05:04 PM, Old:800, New:600
Emission PMT (V): Changed: 21/05/2023 2:05:04 PM, Old: 800, New: 600
Scan mode: Changed: 21/05/2023 2:07:15 PM, Old:Emission, New:Excitation
Excitation Wavelength Changed: 21/05/2023 2:07:15 PM, Old: 470.00, New: 220.00
Emission Wavelength Changed: 21/05/2023 2:07:15 PM, Old: 480.00, New: 540.00
Stop Wavelength Changed: 21/05/2023 2:07:15 PM, Old: 700.00, New: 530.00
Scan mode: Changed: 21/05/2023 2:14:20 PM, Old:Excitation, New:Emission
Excitation Wavelength Changed: 21/05/2023 2:14:20 PM, Old: 220.00, New: 366.00
Emission Wavelength Changed: 21/05/2023 2:14:20 PM, Old: 540.00, New: 376.00
Stop Wavelength Changed: 21/05/2023 2:14:20 PM, Old: 530.00, New: 550.00
Stop Wavelength Changed: 21/05/2023 2:15:00 PM, Old: 550.00, New: 650.00
Scan mode: Changed: 21/05/2023 2:17:05 PM, Old:Emission, New:Excitation
Excitation Wavelength Changed: 21/05/2023 2:17:05 PM, Old: 366.00, New: 220.00
Emission Wavelength Changed: 21/05/2023 2:17:05 PM, Old: 376.00, New: 445.00
Stop Wavelength Changed: 21/05/2023 2:17:05 PM, Old: 650.00, New: 435.00
Scan mode: Changed: 21/05/2023 3:04:18 PM, Old:Excitation, New:Emission
Excitation Wavelength Changed: 21/05/2023 3:04:18 PM, Old: 220.00, New: 335.00
Emission Wavelength Changed: 21/05/2023 3:04:18 PM, Old: 445.00, New: 345.00
Stop Wavelength Changed: 21/05/2023 3:04:18 PM, Old: 435.00, New: 650.00
Stop Wavelength Changed: 21/05/2023 3:05:08 PM, Old: 650.00, New: 700.00
Scan mode: Changed: 21/05/2023 3:07:25 PM, Old:Emission, New:Excitation
Excitation Wavelength Changed: 21/05/2023 3:07:25 PM, Old: 335.00, New: 220.00
Emission Wavelength Changed: 21/05/2023 3:07:25 PM, Old: 345.00, New: 508.00
Stop Wavelength Changed: 21/05/2023 3:07:25 PM, Old: 700.00, New: 498.00
Scan mode: Changed: 21/05/2023 3:13:25 PM, Old:Excitation, New:Emission
Excitation Wavelength Changed: 21/05/2023 3:13:25 PM, Old: 220.00, New: 427.00
Emission Wavelength Changed: 21/05/2023 3:13:25 PM, Old: 508.00, New: 437.00
Stop Wavelength Changed: 21/05/2023 3:13:25 PM, Old: 498.00, New: 650.00
Stop Wavelength Changed: 21/05/2023 3:13:58 PM, Old: 650.00, New: 750.00
Scan mode: Changed: 21/05/2023 3:16:50 PM, Old:Emission, New:Excitation
Excitation Wavelength Changed: 21/05/2023 3:16:50 PM, Old: 427.00, New: 220.00
Emission Wavelength Changed: 21/05/2023 3:16:50 PM, Old: 437.00, New: 528.00
Stop Wavelength Changed: 21/05/2023 3:16:50 PM, Old: 750.00, New: 518.00
Scan mode: Changed: 21/05/2023 4:47:47 PM, Old:Excitation, New:Emission
User Delta Stop Changed: 21/05/2023 4:47:47 PM, Old: 630.00, New: 696.00
Excitation Wavelength Changed: 21/05/2023 4:47:47 PM, Old: 220.00, New: 696.00
Emission Wavelength Changed: 21/05/2023 4:47:47 PM, Old: 528.00, New: 706.00
Stop Wavelength Changed: 21/05/2023 4:47:47 PM, Old: 518.00, New: 850.00
Excitation Wavelength Changed: 21/05/2023 4:48:12 PM, Old: 696.00, New: 587.00
Emission Wavelength Changed: 21/05/2023 4:48:12 PM, Old: 706.00, New: 597.00
Scan mode: Changed: 21/05/2023 4:49:20 PM, Old:Emission, New:Excitation
User Delta Stop Changed: 21/05/2023 4:49:20 PM, Old: 696.00, New: 750.00
Excitation Wavelength Changed: 21/05/2023 4:49:20 PM, Old: 587.00, New: 400.00
Emission Wavelength Changed: 21/05/2023 4:49:20 PM, Old: 597.00, New: 750.00
Stop Wavelength Changed: 21/05/2023 4:49:20 PM, Old: 850.00, New: 740.00
User Delta Stop Changed: 21/05/2023 4:50:16 PM, Old: 750.00, New: 760.00
Emission Wavelength Changed: 21/05/2023 4:50:16 PM, Old: 750.00, New: 760.00
Stop Wavelength Changed: 21/05/2023 4:50:16 PM, Old: 740.00, New: 750.00
Scan mode: Changed: 21/05/2023 4:54:28 PM, Old:Excitation, New:Emission
Excitation Wavelength Changed: 21/05/2023 4:54:28 PM, Old: 400.00, New: 638.00
Emission Wavelength Changed: 21/05/2023 4:54:28 PM, Old: 760.00, New: 648.00
Stop Wavelength Changed: 21/05/2023 4:54:28 PM, Old: 750.00, New: 850.00
Excitation Wavelength Changed: 21/05/2023 5:08:46 PM, Old: 638.00, New: 569.00
Emission Wavelength Changed: 21/05/2023 5:08:46 PM, Old: 648.00, New: 576.00
Stop Wavelength Changed: 21/05/2023 5:08:46 PM, Old: 850.00, New: 750.00
Excitation Wavelength Changed: 21/05/2023 5:09:36 PM, Old: 569.00, New: 512.00
Emission Wavelength Changed: 21/05/2023 5:09:36 PM, Old: 576.00, New: 522.00
Scan mode: Changed: 21/05/2023 5:11:28 PM, Old:Emission, New:Excitation
Excitation Wavelength Changed: 21/05/2023 5:11:28 PM, Old: 512.00, New: 220.00
Emission Wavelength Changed: 21/05/2023 5:11:28 PM, Old: 522.00, New: 604.00
Stop Wavelength Changed: 21/05/2023 5:11:28 PM, Old: 750.00, New: 594.00
Emission Wavelength Changed: 21/05/2023 5:13:07 PM, Old: 604.00, New: 622.00
Stop Wavelength Changed: 21/05/2023 5:13:07 PM, Old: 594.00, New: 612.00
End Method Modifications

