Sample 11,,
Wavelength (nm),Intensity (a.u.),
220,0,
220.9299927,-0.1274859756,
222.0299988,-0.2179836482,
222.9600067,-0.1801477224,
224.0599976,-0.2746498287,
225,-0.09983526915,
225.9299927,0.2775794864,
227.0299988,0.201479435,
227.9600067,-0.0966206938,
229.0599976,0.02193992771,
230,-0.2222518474,
230.9299927,0.1873360723,
232.0299988,0.1308113039,
232.9600067,-0.02704895847,
234.0599976,-0.08648524433,
235,0.2359185964,
235.9299927,0.1757263392,
237.0299988,-0.08115565777,
237.9600067,-0.04807230085,
239.0599976,-0.03970223293,
240,0.1659806222,
240.9299927,0.05911999941,
242.0299988,0.05317451805,
242.9600067,0.1352763921,
244.0599976,0.06843143702,
245,0.1066996679,
245.9299927,0.05007561296,
247.0299988,0.03849892691,
247.9600067,0.08304354548,
249.0599976,0.04387552664,
250,-0.0602787286,
250.9299927,0.1751549393,
252.0299988,0.1054407433,
252.9600067,0.1152111664,
254.0599976,0.08398279548,
255,0.0467078723,
255.9299927,0.2159885466,
257.0299988,0.09047726542,
257.9599915,0.07620499283,
259.0599976,0.01710586064,
260,0.09206484258,
261.0700073,0.1930949241,
262,-0.02001240663,
263.0700073,0.2056455165,
264,0.3541076481,
265.0700073,0.327868849,
266,0.6104437709,
267.0700073,0.8585131168,
268,0.9559696913,
269.0700073,1.239742637,
270,1.296761274,
270.9299927,1.325032949,
272.0299988,1.399818063,
272.9599915,1.646175623,
274.0599976,1.6545012,
275,1.705418468,
275.9299927,1.783750653,
277.0299988,1.728483319,
277.9599915,1.678354263,
279.0599976,1.752788544,
280,1.750697017,
280.9299927,1.920990467,
282.0299988,2.043727398,
282.9599915,2.059592009,
284.0599976,1.936260819,
285,2.045354128,
285.9299927,1.825628161,
287.0299988,1.403272629,
287.9599915,1.140169621,
289.0599976,0.9949777722,
290,0.8945736885,
291.0700073,0.7453760505,
292,0.7311425805,
293.0700073,0.6996493936,
294,0.6744237542,
295.0700073,0.8706302643,
296,0.7785422206,
297.0700073,0.7891663313,
298,0.7264996767,
299.0700073,0.7789694071,
300,0.7218011618,
300.9299927,0.5928741693,
302.0299988,0.6601253748,
302.9599915,0.5950703025,
304.0599976,0.5022436976,
305,0.7741768956,
305.9299927,2.046341658,
307.0299988,5.882764339,
307.9599915,9.590399742,
309.0599976,14.73115349,
310,18.01837349,
311.0700073,18.89194489,
312,16.33679771,
313.0700073,11.38614941,
314,7.420197964,
315.0700073,2.819073677,
316,0.8422425389,
317.0700073,0.2561657727,
318,0.1042970419,
319.0700073,0.1658899933,
320,0.1186327562,
321.0700073,0.05644216761,
322,0.08351428062,
323.0700073,0.1526399702,
324,0.1243677959,
325.0700073,0.05459186062,
326,0.1272336543,
327.0700073,0.103649959,
328,0,
329.0700073,0.04874957353,
330,0.04849582165,
330.9299927,0.07818241417,
332.0299988,-0.01512676198,
332.9599915,0.0599871017,
334.0599976,0.1503985524,
335,0.07582420856,
335.9299927,0.2414001226,
337.0299988,-0.01549931057,
337.9599915,0.1588436067,
339.0599976,0.0311895702,
340,-0.01526344754,
341.0700073,0.1329630017,
342,0.01454101317,
343.0700073,0,
344,0.05470235273,
345.0700073,0.1690188497,
346,0.1542582363,
347.0700073,-0.01423406508,
348,0.1875306517,
349.0700073,0.09880167991,
350,0.167427063,
351.0700073,0.05397018418,
352,-0.02466030419,
353.0700073,0.08190008253,
354,-0.09762341529,
355.0700073,0.0492092073,
356,0.08392703533,
357.0700073,0.07164157182,
358,0.04001472518,
359.0700073,0.02287404798,
360,0.05260112509,
361.0700073,-0.0149251502,
362,-0.007734669372,
363.0700073,-0.0252342578,
364,0.09294630587,
365.0700073,-0.01996725425,
366,0.05633929744,
367.0700073,0.06701888889,
368,0.1031317636,
369.0700073,0.09996001422,
370,-0.01087973546,
371.0599976,0.08404773474,
371.9599915,0.03066262044,
373.0299988,-0.03856350854,
373.9299927,-0.0183730647,
375,0,
376.0599976,-0.00856619142,
376.9599915,-0.008347106166,
378.0299988,-0.02621163242,
378.9299927,-0.02594617009,
380,0.008845331147,
381.0700073,0.01716414094,
382,0.05070393905,
383.0700073,0.04923278838,
384,0.03240650892,
385.0700073,0.01578382403,
386,0.03861958161,
387.0700073,0.0147992475,
388,-0.007182514761,
389.0700073,0.04882131517,
390,0.006610128097,
391.0700073,0.01912679709,
392,0.07564153522,
393.0700073,-0.01892063953,
394,0.03858917952,
395.0700073,0.03348154575,
396,0.01378302742,
397.0700073,-0.007071735803,
398,0.08375969529,
399.0700073,0.02795814723,
400,0.04832218587,
401.0599976,0,
401.9599915,0.01267764624,
403.0299988,0.07393214107,
403.9299927,0.04147386551,
405,0.07852043211,
406.0599976,-0.02443538979,
406.9599915,0.08542627841,
408.0299988,-0.01836895943,
408.9299927,0.00601525465,
410,-0.006051986478,
411.0700073,0,
412,-0.05770406872,
413.0700073,0.0278100688,
414,0.03120627999,
415.0700073,0.009592509829,
416,-0.00432677567,
417.0700073,0.02373436466,
418,-0.03243862838,
419.0700073,0,
420,0.01536825392,
421.0599976,-0.006090097129,
421.9599915,-0.002981469966,
423.0299988,0.008897799067,
423.9299927,0.003200020408,
425,0.01320341229,
426.0599976,0,
426.9599915,0.01848845743,
428.0299988,-0.01968821697,
428.9299927,0,
430,-0.02060929313,
431.0599976,-0.008149726316,
431.9599915,0,
433.0299988,0.004024144728,
433.9299927,0,
435,0.003990741447,
436.0599976,0.02735336684,
436.9599915,0.0192402415,
438.0299988,0.02606959827,
438.9299927,0.02185012214,
440,0.003534730524,
441.0599976,0.01761456579,
441.9599915,-0.02461036481,
443.0299988,0.003587714164,
443.9299927,0.003502651351,
445,-0.01021488663,
446.0599976,-0.01695317589,
446.9599915,-0.03104915284,
448.0299988,-0.01078671124,
448.9299927,0.01495545171,
450,-0.01994550787,
451.0599976,0.01661288366,
451.9599915,-0.0218359679,
453.0299988,-0.01862587593,
453.9299927,0.03685871884,
455,0.03257874772,
456.0599976,-0.004495816305,
456.9599915,0.01308849081,
458.0299988,0,
458.9299927,-0.02075601742,
460,-0.03826205432,
461.0599976,-0.04921964556,
461.9599915,0.07161921263,
463.0299988,0,
463.9299927,0.02230785973,
465,-0.005862695631,
466.0599976,-0.005915899761,
466.9599915,0.05652662739,
468.0299988,0.006360635161,
468.9299927,0.01962913945,
470,0.03375732526,
471.0400085,-0.01384265069,
471.9400024,0.03538019583,
472.980011,0.01451431494,
474.019989,0.02166096307,
475.0700073,0.02189173736,
475.9700012,0.007301402278,
477.0100098,0.0141744446,
478.0499878,-0.01378369238,
478.9500122,0.01963312179,
480,0.03442005068,
481.0599976,0.009675858542,
481.9599915,0.01299736556,
483.0299988,-0.01537237596,
483.9299927,-0.007322815247,
485,-0.04432918876,
486.0599976,-0.003795973957,
486.9599915,0.01980770752,
488.0299988,0.008370792493,
488.9299927,0.01314803399,
490,0.04142731056,
491.0400085,-0.009887773544,
491.9400024,0,
492.980011,0.01783962175,
494.019989,-0.03304190189,
495.0700073,0.06541981548,
495.9700012,0.108935006,
497.0100098,-0.03198618442,
498.0499878,0.05887646973,
498.9500122,0.09656492621,
500,-0.06376098096,
501.0599976,0.03835348785,
501.9599915,0.07803812623,
503.0299988,0.06011421606,
503.9299927,0.04008939862,
505,0.02021059394,
506.0599976,-0.02983768284,
506.9599915,0.06005885825,
508.0299988,-0.0487267673,
508.9299927,0.0291036088,
510,0.009646364488,
511.0400085,0.01882477105,
511.9400024,0.01911753416,
512.9799805,0.1054104269,
514.0200195,-0.067905128,
515.0700073,0.03861711919,
515.9699707,0,
517.0100098,-0.008966037072,
518.0499878,0.08875398338,
518.9500122,0.0527199097,
520,-0.06341154128,
521.039978,0.009275491349,
521.9400024,0.06479801238,
522.9799805,0.0995394066,
524.0200195,0.04267704487,
525.0700073,0.02977630496,
525.9699707,0.08779393882,
527.0100098,0.05447744206,
528.0499878,0.05083281174,
528.9500122,0.1461922526,
530,0.1259748638,
531.0200195,-0.005987701006,
532.0499878,0.1141393259,
532.9400024,0,
533.9699707,0.04187253863,
535,0.05752953887,
536.0200195,-0.03147524223,
537.0499878,0.00799782481,
537.9400024,0,
538.9699707,-0.1020320058,
540,0.1091745645,
541.039978,0.02179013193,
541.9400024,0.0147247212,
542.9799805,0.007646429352,
544.0200195,0.02387869544,
545.0700073,0.06128255278,
545.9699707,-0.009453940205,
547.0100098,0.01046156418,
548.0499878,-0.08087249845,
548.9500122,-0.01241804101,
550,0.1074575558,
551.0200195,-0.07062545419,
552.0499878,-0.0294191204,
552.9400024,0.01487541758,
553.9699707,-0.09067963809,
555,0.2070954144,
556.0200195,0.1355243176,
557.0499878,0.0523359254,
557.9400024,0.01763948426,
558.9699707,0,
560,-0.01800958067,
561.039978,0.1077044606,
561.9400024,0.05533320084,
562.9799805,0.1068490222,
564.0200195,0.1725030094,
565.0700073,0,
565.9699707,-0.08283082396,
567.0100098,0.03284180164,
568.0499878,0.1482384354,
568.9500122,0.08305234462,
570,0.06278449297,
571.0200195,0.1075698435,
572.0499878,0.07482005656,
572.9400024,0.1636296064,
573.9699707,0.06192141771,
575,0.0158942081,
576.0200195,-0.01626307145,
577.0499878,0.01734394766,
577.9400024,0.1087843329,
578.9699707,0.0197890494,
580,0.06327778846,
581.0200195,-0.02212291397,
582.0499878,0.04540398344,
582.9400024,0.2310589552,
583.9699707,-0.02344445884,
585,0,
586.0200195,0.09309469908,
587.0499878,0.1164144352,
587.9400024,-0.2293472737,
588.9699707,0.2239792049,
590,0.3547042608,
591.0200195,0.152293101,
592.0499878,0.0438894853,
592.9400024,-0.129430294,
593.9699707,0.0204010848,
595,0.1789050996,
596.0200195,0.0965455994,
597.0499878,0,
597.9400024,0.03840393573,
598.9699707,0.1183455288,
600,0.02062663808,
601.0100098,0.2693909705,
602.0200195,0.1836847216,
603.039978,0.05771672726,
604.0499878,0.1277815253,
605.0700073,0.07142730057,
605.9400024,0.1086917073,
606.9500122,0.07444907725,
607.9699707,-0.09567913413,
608.9799805,0.1794508845,
610,0.1810500771,
611.0200195,0.06330449134,
612.0499878,0.2241901159,
612.9400024,0.0954175666,
613.9699707,0.3306710124,
615,0.2712967992,

Sample 11,
Sample 11
Collection Time: 5/05/2023 2:58:38 PM
Operator Name  :
Scan Software Version: 1.2(147)
Parameter List :
Instrument                        Cary Eclipse
Instrument Serial Number          test
Data mode                         Fluorescence
Scan mode                         Excitation
X Mode                            Wavelength (nm)
Start (nm)                        220.00
Stop (nm)                         615.00
Em. Wavelength (nm)               625.00
Ex. Slit (nm)                     5
Em. Slit (nm)                     5
Scan rate (nm/min)                600.00
Data interval (nm)                1.0000
Averaging Time (s)                0.1000
Excitation filter                 Auto
Emission filter                   Open
PMT voltage (V)                   Medium
Corrected spectra                 OFF
Method Log     :
Method Name    : Default
Date/Time stamp: 5/05/2023 1:46:27 PM
Method Modifications:
User Delta Stop Changed: 5/05/2023 2:37:38 PM, Old: 450.00, New: 690.00
User Delta Increment Changed: 5/05/2023 2:37:38 PM, Old:  10.00, New:   0.15
Excitation Wavelength Changed: 5/05/2023 2:37:38 PM, Old: 350.00, New: 690.00
Emission Wavelength Changed: 5/05/2023 2:37:38 PM, Old: 400.00, New: 700.00
Stop Wavelength Changed: 5/05/2023 2:37:38 PM, Old: 600.00, New: 850.00
Excitation Wavelength Changed: 5/05/2023 2:38:01 PM, Old: 690.00, New: 630.00
Emission Wavelength Changed: 5/05/2023 2:38:01 PM, Old: 700.00, New: 640.00
Overlayed Graphs Changed: 5/05/2023 2:38:31 PM, Old:OFF, New:ON
Scan mode: Changed: 5/05/2023 2:40:13 PM, Old:Emission, New:Excitation
User Delta Stop Changed: 5/05/2023 2:40:13 PM, Old: 690.00, New: 780.00
Excitation Wavelength Changed: 5/05/2023 2:40:13 PM, Old: 630.00, New: 220.00
Emission Wavelength Changed: 5/05/2023 2:40:13 PM, Old: 640.00, New: 780.00
Stop Wavelength Changed: 5/05/2023 2:40:13 PM, Old: 850.00, New: 770.00
Scan mode: Changed: 5/05/2023 2:52:20 PM, Old:Excitation, New:Emission
Excitation Wavelength Changed: 5/05/2023 2:52:20 PM, Old: 220.00, New: 566.00
Emission Wavelength Changed: 5/05/2023 2:52:20 PM, Old: 780.00, New: 576.00
Stop Wavelength Changed: 5/05/2023 2:52:20 PM, Old: 770.00, New: 850.00
Excitation Wavelength Changed: 5/05/2023 2:53:03 PM, Old: 566.00, New: 500.00
Emission Wavelength Changed: 5/05/2023 2:53:03 PM, Old: 576.00, New: 510.00
Scan mode: Changed: 5/05/2023 2:55:50 PM, Old:Emission, New:Excitation
Excitation Wavelength Changed: 5/05/2023 2:55:50 PM, Old: 500.00, New: 220.00
Emission Wavelength Changed: 5/05/2023 2:55:50 PM, Old: 510.00, New: 613.00
Stop Wavelength Changed: 5/05/2023 2:55:50 PM, Old: 850.00, New: 605.00
Emission Wavelength Changed: 5/05/2023 2:56:46 PM, Old: 613.00, New: 625.00
Stop Wavelength Changed: 5/05/2023 2:56:46 PM, Old: 605.00, New: 615.00
End Method Modifications

