Sample 11,,
Wavelength (nm),Intensity (a.u.),
220,1.385254741,
220.9299927,1.101018429,
222.0299988,0.7898002863,
222.9600067,1.423285007,
224.0599976,0.8239700198,
225,0.3246753216,
225.9299927,0.497162044,
227.0299988,0.06124823913,
227.9600067,0.3546279073,
229.0599976,0.1147236302,
230,0.2041464448,
230.9299927,-0.04822996259,
232.0299988,0.1810469627,
232.9600067,0.2618867457,
234.0599976,0.08956025541,
235,0.2754146457,
235.9299927,0,
237.0299988,-0.02820556238,
237.9600067,0.02461417392,
239.0599976,0.1242364645,
240,0.1958061904,
240.9299927,0.158586666,
242.0299988,0.1294665933,
242.9600067,0.08861096203,
244.0599976,0.1409873813,
245,0.04314482957,
245.9299927,0.1759961843,
247.0299988,0.06138986722,
247.9600067,0.1146848798,
249.0599976,0.2199201435,
250,0.1009298116,
250.9299927,0.2154955715,
252.0299988,0.2439421117,
252.9600067,0.01641012169,
254.0599976,0.1013753265,
255,0.159560889,
255.9299927,0.1869831085,
257.0299988,0.1685244441,
257.9599915,0.06987074018,
259.0599976,0.1407310963,
260,0.17765145,
261.0700073,0.06585136801,
262,0.1439855248,
263.0700073,0.2542419732,
264,0.107694149,
265.0700073,0.2830327451,
266,0.2074552923,
267.0700073,0.2564482093,
268,0.217621401,
269.0700073,0.2342574447,
270,0.2375861257,
270.9299927,0.1772849709,
272.0299988,0.2347362787,
272.9599915,0.2569990754,
274.0599976,0.4330085516,
275,0.5984389782,
275.9299927,0.941935122,
277.0299988,0.9876030087,
277.9599915,0.8488357663,
279.0599976,0.7530246377,
280,0.5628803968,
280.9299927,0.2810746133,
282.0299988,0.1999883354,
282.9599915,0.05739774927,
284.0599976,0.09144642949,
285,0.1441985518,
285.9299927,0.06681923568,
287.0299988,0.1326248944,
287.9599915,0.04187043756,
289.0599976,0.1866307408,
290,0.1773364097,
291.0700073,0.1939798892,
292,0.1464952976,
293.0700073,0.1277149469,
294,0.09290370345,
295.0700073,0.1990607232,
296,0.401363194,
297.0700073,1.622486115,
298,3.762708426,
299.0700073,7.500832558,
300,12.29920578,
300.9299927,15.41711903,
302.0299988,17.19425774,
302.9599915,15.20560837,
304.0599976,10.86862373,
305,6.440313816,
305.9299927,2.87462306,
307.0299988,0.7294177413,
307.9599915,0.2399082184,
309.0599976,0,
310,-0.01029293705,
311.0700073,0.1500423402,
312,0.03395201638,
313.0700073,0.1355497837,
314,0.1213032827,
315.0700073,0.1325135231,
316,0.04274965823,
317.0700073,0.132055819,
318,0,
319.0700073,0.06160575151,
320,0.2288643718,
321.0700073,0.04398697987,
322,0.01452728268,
323.0700073,0.05736905709,
324,0.0428308323,
325.0700073,0.1151211634,
326,0.1327511966,
327.0700073,0.03034533001,
328,0.06622736156,
329.0700073,-0.01626889221,
330,0.09632364661,
330.9299927,0.1581077725,
332.0299988,0.1774823368,
332.9599915,0.1254056096,
334.0599976,0.1738580763,
335,-0.03137402236,
335.9299927,0.1941401958,
337.0299988,-0.01653685234,
337.9599915,0.03155171499,
339.0599976,0.04831228778,
340,0.191723913,
341.0700073,0,
342,0.2517809868,
343.0700073,0.1710083783,
344,-0.01443793066,
345.0700073,0.02940787189,
346,0.1493495852,
347.0700073,0.05872852728,
348,0.06126981974,
349.0700073,0.1046228334,
350,0.1008311361,
351.0700073,-0.1064070314,
352,0.01244849432,
353.0700073,0.03566121683,
354,0.08991390467,
355.0700073,-0.01017252635,
356,0.009626585059,
357.0700073,-0.04457996786,
358,0.06562487036,
359.0700073,0.07117269188,
360,-0.007449899334,
361.0700073,0,
362,0.04030730203,
363.0700073,0.1030202135,
364,0.01972133666,
365.0700073,-0.01012822334,
366,0.1013901681,
367.0700073,-0.01145095006,
368,0.03500297666,
369.0700073,-0.09876664728,
370,0.02208358608,
371.0599976,-0.09890544415,
371.9599915,0.02087857015,
373.0299988,-0.009838743135,
373.9299927,0.04736867175,
375,0.02770210989,
376.0599976,0.01757191308,
376.9599915,0.05175626278,
378.0299988,0.07230985165,
378.9299927,0,
380,0.125834778,
381.0700073,0.07191140205,
382,-0.02729779296,
383.0700073,0.06063966081,
384,0,
385.0700073,0.04278880358,
386,0.02367853932,
387.0700073,0.1282832474,
388,0.04564716294,
389.0700073,0.0234336555,
390,0.02194041014,
391.0700073,0.03329027817,
392,0.01300085802,
393.0700073,0.007007855922,
394,0.007305562496,
395.0700073,-0.006971507333,
396,0.03571377695,
397.0700073,0.007326222025,
398,0.05127266049,
399.0700073,0.02317497134,
400,-0.02125790156,
401.0599976,0.01363670453,
401.9599915,-0.00674304273,
403.0299988,-0.03245804831,
403.9299927,-0.06303540617,
405,-0.05867511407,
406.0599976,0.01298170257,
406.9599915,-0.01892195269,
408.0299988,-0.01287158672,
408.9299927,-0.01913472824,
410,0.02521241456,
411.0700073,-0.0252775792,
412,-0.006162948441,
413.0700073,0.0517520979,
414,0.05509155989,
415.0700073,0.009896433912,
416,-0.02796055749,
417.0700073,0.0165891815,
418,-0.01856444776,
419.0700073,-0.01404543687,
420,0,
421.0599976,0.01563731395,
421.9599915,0,
423.0299988,0.0335153304,
423.9299927,0.006439212244,
425,-0.02341849916,
426.0599976,-0.02493143827,
426.9599915,0.03748631477,
428.0299988,-0.008092906326,
428.9299927,0.008404032327,
430,-0.02165655233,
431.0599976,0.01281673368,
431.9599915,0,
433.0299988,-0.04580470547,
433.9299927,-0.01673332229,
435,-0.03352470323,
436.0599976,-0.0405004248,
436.9599915,-0.02521442808,
438.0299988,-0.0276570525,
438.9299927,-0.03064241819,
440,-0.04069206119,
441.0599976,-0.01834296994,
441.9599915,-0.02192958258,
443.0299988,-0.02273553982,
443.9299927,-0.003697281471,
445,-0.01776842773,
446.0599976,-0.02105817385,
446.9599915,0,
448.0299988,0.0483142063,
448.9299927,-0.01237700321,
450,-0.01636199281,
451.0599976,-0.02560218424,
451.9599915,-0.0137279043,
453.0299988,-0.004671805538,
453.9299927,-0.004770765081,
455,-0.009566539899,
456.0599976,-0.01931462064,
456.9599915,-0.004651573952,
458.0299988,0.022012081,
458.9299927,-0.004303037189,
460,0.02595469914,
461.0599976,-0.009197304957,
461.9599915,0.02460642159,
463.0299988,0.01077533979,
463.9299927,0.02286406793,
465,0.02954017743,
466.0599976,0.05603775755,
466.9599915,0.01888835616,
468.0299988,0.05936754122,
468.9299927,-0.01415698696,
470,0.007090086583,
471.0400085,0.01486425195,
471.9400024,0.02267419361,
472.980011,-0.03712420911,
474.019989,0.03354747966,
475.0700073,0.0076593142,
475.9700012,0,
477.0100098,-0.05212172493,
478.0499878,0.06478921324,
478.9500122,0.0141844973,
480,0.05610133335,
481.0599976,0.04946957901,
481.9599915,0,
483.0299988,0.01628671028,
483.9299927,0.02775993198,
485,-0.01933158934,
486.0599976,-0.007970382459,
486.9599915,-0.01248662919,
488.0299988,-0.02184455469,
488.9299927,-0.02326501161,
490,0,
491.0400085,0.01545292418,
491.9400024,0.01112186257,
492.980011,0.04950341955,
494.019989,-0.0137434369,
495.0700073,0.007636502385,
495.9700012,-0.04929305613,
497.0100098,0.06980498135,
498.0499878,0.008716192096,
498.9500122,-0.04553277791,
500,0.02956888638,
501.0599976,0.04049607739,
501.9599915,-0.02099516988,
503.0299988,-0.04222884029,
503.9299927,0.04196215048,
505,0.05192647129,
506.0599976,0.05190652609,
506.9599915,0.08298927546,
508.0299988,0.08245212585,
508.9299927,0.05877973139,
510,0.1074428558,
511.0400085,0.03870680556,
511.9400024,0.03961965069,
512.9799805,0.1387457401,
514.0200195,0.1005358547,
515.0700073,0.1605974287,
515.9699707,0.07856617123,
517.0100098,0.108291164,
518.0499878,0.02717785165,
518.9500122,0.08466126025,
520,0.1369963139,
521.039978,0.01924446225,
521.9400024,-0.01908087544,
522.9799805,0.009359439835,
524.0200195,0.01775111258,
525.0700073,0.02422871813,
525.9699707,-0.01380024105,
527.0100098,0.01285545342,
528.0499878,-0.005825231317,
528.9500122,0.01700690016,
530,-0.01785342209,
531.0200195,-0.01227852609,
532.0499878,0.006639092229,
532.9400024,0.02020270005,
533.9699707,-0.0152225541,
535,0,
536.0200195,0.03266159073,
537.0499878,-0.01698773541,
537.9400024,-0.02556302585,
538.9699707,0.01654396579,
540,0.08458415419,
541.039978,-0.03816269711,
541.9400024,0.03762991726,
542.9799805,0.1207346693,
544.0200195,0.01631587557,
545.0700073,0.01811922528,
545.9699707,-0.009822892956,
547.0100098,0.03254466876,
548.0499878,0.02368265204,
548.9500122,0.03766856715,
550,0,
551.0200195,0.01467588264,
552.0499878,0.1064347401,
552.9400024,-0.1078084111,
553.9699707,-0.09544109553,
555,-0.0996131748,
556.0200195,0.05147475004,
557.0499878,0,
557.9400024,-0.09046335518,
558.9699707,0.09149967879,
560,-0.0766871199,
561.039978,0.07654037327,
561.9400024,0.03683716059,
562.9799805,-0.07405761629,
564.0200195,0.08953032643,
565.0700073,0.01718478836,
565.9699707,-0.1204383969,
567.0100098,0.0685377419,
568.0499878,0.1033075601,
568.9500122,-0.03427415714,
570,0.06748435646,
571.0200195,0.1771793067,
572.0499878,-0.06236455217,
572.9400024,0.1076178029,
573.9699707,-0.1235559434,
575,0.1459120214,
576.0200195,0,
577.0499878,-0.03568879515,
577.9400024,0.05609573796,
578.9699707,0.3257063925,
580,0.105303064,
581.0200195,0.06695681065,
582.0499878,0.1403016448,
582.9400024,-0.1422003061,
583.9699707,0.1468356997,
585,-0.1489388049,
586.0200195,0.04966969416,
587.0499878,-0.04764740914,
587.9400024,0.04698916897,
588.9699707,0.046254538,
590,0.1150721535,
591.0200195,0.07128091902,
592.0499878,-0.04629415274,
592.9400024,-0.1099916399,
593.9699707,-0.02145830728,
595,0.1016363427,
596.0200195,0.06085069105,
597.0499878,0.06132085249,
597.9400024,0.1777812839,
598.9699707,0.1231805235,
600,0.3530372381,

Sample 11,
Sample 11
Collection Time: 15/04/2023 3:09:46 PM
Operator Name  :
Scan Software Version: 1.2(147)
Parameter List :
Instrument                        Cary Eclipse
Instrument Serial Number          test
Data mode                         Fluorescence
Scan mode                         Excitation
X Mode                            Wavelength (nm)
Start (nm)                        220.00
Stop (nm)                         600.00
Em. Wavelength (nm)               607.00
Ex. Slit (nm)                     5
Em. Slit (nm)                     5
Scan rate (nm/min)                600.00
Data interval (nm)                1.0000
Averaging Time (s)                0.1000
Excitation filter                 Auto
Emission filter                   Open
PMT voltage (V)                   Medium
Corrected spectra                 OFF
Method Log     :
Method Name    : Default
Date/Time stamp: 15/04/2023 2:48:30 PM
Method Modifications:
Overlayed Graphs Changed: 15/04/2023 2:48:42 PM, Old:OFF, New:ON
Excitation Wavelength Changed: 15/04/2023 2:51:34 PM, Old: 350.00, New: 220.00
Emission Wavelength Changed: 15/04/2023 2:51:34 PM, Old: 400.00, New: 230.00
Excitation Wavelength Changed: 15/04/2023 2:55:58 PM, Old: 220.00, New: 265.00
Emission Wavelength Changed: 15/04/2023 2:55:58 PM, Old: 230.00, New: 275.00
Stop Wavelength Changed: 15/04/2023 2:55:58 PM, Old: 600.00, New: 700.00
PMT Volts Changed: 15/04/2023 2:56:08 PM, Old:600, New:800
Emission PMT (V): Changed: 15/04/2023 2:56:08 PM, Old: 600, New: 800
Excitation Wavelength Changed: 15/04/2023 2:57:08 PM, Old: 265.00, New: 289.00
Emission Wavelength Changed: 15/04/2023 2:57:08 PM, Old: 275.00, New: 220.00
Stop Wavelength Changed: 15/04/2023 2:57:08 PM, Old: 700.00, New: 289.00
Scan mode: Changed: 15/04/2023 2:57:11 PM, Old:Emission, New:Excitation
Excitation Wavelength Changed: 15/04/2023 2:57:11 PM, Old: 289.00, New: 220.00
Emission Wavelength Changed: 15/04/2023 2:57:11 PM, Old: 220.00, New: 289.00
Ex. Slit Width (nm): Changed: 15/04/2023 2:57:58 PM, Old:5, New:10
Em. Slit Width (nm): Changed: 15/04/2023 2:57:58 PM, Old:5, New:10
Scan mode: Changed: 15/04/2023 2:58:29 PM, Old:Excitation, New:Emission
Excitation Wavelength Changed: 15/04/2023 2:58:29 PM, Old: 220.00, New: 264.00
Emission Wavelength Changed: 15/04/2023 2:58:29 PM, Old: 289.00, New: 274.00
Stop Wavelength Changed: 15/04/2023 2:58:29 PM, Old: 289.00, New: 500.00
PMT Volts Changed: 15/04/2023 2:59:07 PM, Old:800, New:700
Ex. Slit Width (nm): Changed: 15/04/2023 2:59:07 PM, Old:10, New:5
Em. Slit Width (nm): Changed: 15/04/2023 2:59:07 PM, Old:10, New:5
Emission PMT (V): Changed: 15/04/2023 2:59:07 PM, Old: 800, New: 700
PMT Volts Changed: 15/04/2023 3:06:09 PM, Old:700, New:600
User Delta Stop Changed: 15/04/2023 3:06:09 PM, Old: 450.00, New: 557.00
User Delta Increment Changed: 15/04/2023 3:06:09 PM, Old:  10.00, New:   0.15
Emission PMT (V): Changed: 15/04/2023 3:06:09 PM, Old: 700, New: 600
Excitation Wavelength Changed: 15/04/2023 3:06:09 PM, Old: 264.00, New: 557.00
Emission Wavelength Changed: 15/04/2023 3:06:09 PM, Old: 274.00, New: 567.00
Stop Wavelength Changed: 15/04/2023 3:06:09 PM, Old: 500.00, New: 700.00
Excitation Wavelength Changed: 15/04/2023 3:06:41 PM, Old: 557.00, New: 515.00
Emission Wavelength Changed: 15/04/2023 3:06:41 PM, Old: 567.00, New: 525.00
Scan mode: Changed: 15/04/2023 3:07:22 PM, Old:Emission, New:Excitation
User Delta Stop Changed: 15/04/2023 3:07:22 PM, Old: 557.00, New: 563.00
Excitation Wavelength Changed: 15/04/2023 3:07:22 PM, Old: 515.00, New: 220.00
Emission Wavelength Changed: 15/04/2023 3:07:22 PM, Old: 525.00, New: 563.00
Stop Wavelength Changed: 15/04/2023 3:07:22 PM, Old: 700.00, New: 553.00
User Delta Stop Changed: 15/04/2023 3:08:43 PM, Old: 563.00, New: 607.00
Emission Wavelength Changed: 15/04/2023 3:08:43 PM, Old: 563.00, New: 607.00
Stop Wavelength Changed: 15/04/2023 3:08:43 PM, Old: 553.00, New: 600.00
End Method Modifications

