Sample 4,,
Wavelength (nm),Intensity (a.u.),
220,1.614560366,
220.9299927,-0.2574996948,
222.0299988,-0.1069290042,
222.9600067,-0.5294740796,
224.0599976,-0.2726467252,
225,0.4561581314,
225.9299927,0.1928417236,
227.0299988,0.3525678813,
227.9600067,0.2727430463,
229.0599976,-0.04536278546,
230,-0.04484003037,
230.9299927,0.1931480616,
232.0299988,0.1323206425,
232.9600067,0.1159285903,
234.0599976,0.08847208321,
235,0.3025810421,
235.9299927,0.3519680798,
237.0299988,-0.0281064678,
237.9600067,0,
239.0599976,0.02031818219,
240,0.1545356214,
240.9299927,-0.09265694022,
242.0299988,-0.0680809319,
242.9600067,0.05089835823,
244.0599976,-0.01172332931,
245,-0.02189046144,
245.9299927,0.09142903239,
247.0299988,0.09988313913,
247.9600067,0.1321433634,
249.0599976,0.09977827221,
250,0,
250.9299927,0.1096190736,
252.0299988,0.1113638878,
252.9600067,0.1128195226,
254.0599976,0.08178354055,
255,0.1080430299,
255.9299927,0.08254344016,
257.0299988,0,
257.9599915,0,
259.0599976,0.0936210081,
260,0.08471776545,
261.0700073,0.1553902179,
262,0.1449807584,
263.0700073,0.3361782134,
264,0.696097374,
265.0700073,0.9722325802,
266,1.298505187,
267.0700073,1.789445043,
268,2.035130024,
269.0700073,2.512069464,
270,2.627224445,
270.9299927,2.790048599,
272.0299988,3.002748013,
272.9599915,2.946470022,
274.0599976,3.032679319,
275,2.961419582,
275.9299927,3.118536711,
277.0299988,3.073559999,
277.9599915,3.025034428,
279.0599976,2.972161055,
280,3.010550499,
280.9299927,2.877240419,
282.0299988,2.890759706,
282.9599915,2.719147682,
284.0599976,2.680760384,
285,2.575928211,
285.9299927,2.584905386,
287.0299988,2.550728083,
287.9599915,2.388763428,
289.0599976,2.402672052,
290,2.626600742,
291.0700073,2.464452028,
292,2.525175571,
293.0700073,2.630963802,
294,2.477169275,
295.0700073,2.643682003,
296,2.678107977,
297.0700073,2.564989328,
298,2.815623522,
299.0700073,2.748785257,
300,2.880963802,
300.9299927,2.839577913,
302.0299988,2.988996983,
302.9599915,2.848588228,
304.0599976,3.054913759,
305,3.40731883,
305.9299927,3.194372654,
307.0299988,3.390525103,
307.9599915,3.496861935,
309.0599976,3.29346323,
310,3.457070589,
311.0700073,3.429756641,
312,3.56063652,
313.0700073,3.507688284,
314,3.567001104,
315.0700073,3.632113457,
316,3.557675838,
317.0700073,3.704389811,
318,3.498686314,
319.0700073,3.387916327,
320,3.354808092,
321.0700073,3.244921207,
322,3.213323593,
323.0700073,2.976704597,
324,2.832039356,
325.0700073,2.488559484,
326,2.455273867,
327.0700073,2.13940239,
328,1.878728151,
329.0700073,1.66543901,
330,1.386432052,
330.9299927,1.295816422,
332.0299988,0.9264493585,
332.9599915,1.211526394,
334.0599976,0.9427937269,
335,0.8143322468,
335.9299927,0.7658609748,
337.0299988,0.8393052816,
337.9599915,0.5581514239,
339.0599976,0.4891287088,
340,0.484117806,
341.0700073,0.5158706307,
342,0.5339798927,
343.0700073,0.4302926064,
344,0.5981430411,
345.0700073,0.5054735541,
346,0.5274920464,
347.0700073,0.6711122394,
348,0.5453470945,
349.0700073,0.568682611,
350,0.4736233652,
351.0700073,0.4466631413,
352,0.4704600871,
353.0700073,0.3587966859,
354,0.3770818114,
355.0700073,0.3996802568,
356,0.4542398751,
357.0700073,0.4524268806,
358,0.3450461626,
359.0700073,0.3620007336,
360,0.4660797417,
361.0700073,0.4252830744,
362,0.3874107003,
363.0700073,0.3368988335,
364,0.2907494903,
365.0700073,0.4119965136,
366,0.4019467235,
367.0700073,0.4274754226,
368,0.4613344073,
369.0700073,0.5640224218,
370,0.4448977709,
371.0599976,0.5272203684,
371.9599915,0.4801160395,
373.0299988,0.3915576339,
373.9299927,0.3547518551,
375,0.3723008335,
376.0599976,0.5000635982,
376.9599915,0.4478988349,
378.0299988,0.4659414589,
378.9299927,0.469296515,
380,0.533264637,
381.0700073,0.5963244438,
382,0.5841587186,
383.0700073,0.8193077445,
384,1.287204385,
385.0700073,2.064127684,
386,3.092102289,
387.0700073,3.359181404,
388,3.2551682,
389.0700073,2.875109673,
390,2.265067816,
391.0700073,1.427622199,
392,1.022248507,
393.0700073,0.7760209441,
394,0.6851273775,
395.0700073,0.6218079925,
396,0.619195044,
397.0700073,0.633921206,
398,0.5980235338,
399.0700073,0.7507879734,
400,0.6084790826,
401.0599976,0.6725043058,
401.9599915,0.7255043983,
403.0299988,0.7686198354,
403.9299927,0.7223464847,
405,0.7519928217,
406.0599976,0.8609556556,
406.9599915,0.8889169097,
408.0299988,0.820981741,
408.9299927,0.8324049711,
410,0.8907659054,
411.0700073,0.8642141819,
412,1.009063482,
413.0700073,0.8578287959,
414,0.8971242905,
415.0700073,0.9060852528,
416,0.9389888644,
417.0700073,0.9099254012,
418,0.903985858,
419.0700073,0.864474833,
420,0.8064413667,
421.0599976,0.797162354,
421.9599915,0.7697576284,
423.0299988,0.6650140285,
423.9299927,0.6168374419,
425,0.6319968104,
426.0599976,0.6019676328,
426.9599915,0.5476430655,
428.0299988,0.5358926058,
428.9299927,0.49698928,
430,0.4861004353,
431.0599976,0.4316070378,
431.9599915,0.4145001173,
433.0299988,0.3859466314,
433.9299927,0.3494232297,
435,0.3383829296,
436.0599976,0.3738603294,
436.9599915,0.3728763461,
438.0299988,0.3914512992,
438.9299927,0.3670977652,
440,0.3883776963,
441.0599976,0.384695828,
441.9599915,0.3943721652,
443.0299988,0.3783815503,
443.9299927,0.4185341001,
445,0.3709468842,
446.0599976,0.3789705932,
446.9599915,0.3677354455,
448.0299988,0.337690264,
448.9299927,0.3946543634,
450,0.3912477195,
451.0599976,0.4181351066,
451.9599915,0.3874996006,
453.0299988,0.4205541313,
453.9299927,0.433273524,
455,0.4600355625,
456.0599976,0.3676909506,
456.9599915,0.4993557334,
458.0299988,0.5248530507,
458.9299927,0.4675530791,
460,0.4352148771,
461.0599976,0.5118455887,
461.9599915,0.4360359311,
463.0299988,0.4846273959,
463.9299927,0.5040181279,
465,0.56140095,
466.0599976,0.5654127598,
466.9599915,0.600972712,
468.0299988,0.5197572708,
468.9299927,0.554402411,
470,0.6341153979,
471.0400085,0.611964941,
471.9400024,0.5609654188,
472.980011,0.7023653388,
474.019989,0.6077765822,
475.0700073,0.6616952419,
475.9700012,0.6956750751,
477.0100098,0.6455137134,
478.0499878,0.6842190027,
478.9500122,0.6404893994,
480,0.8185378313,
481.0599976,0.768635571,
481.9599915,0.6571424603,
483.0299988,0.7448987365,
483.9299927,0.7379878163,
485,0.6891466975,
486.0599976,0.6275289059,
486.9599915,0.6420519948,
488.0299988,0.658118248,
488.9299927,0.6509432197,
490,0.6414517164,
491.0400085,0.5621476769,
491.9400024,0.6216676831,
492.980011,0.5987948775,
494.019989,0.6321843266,
495.0700073,0.6368042827,
495.9700012,0.6300502419,
497.0100098,0.654422462,
498.0499878,0.7108703852,
498.9500122,0.6120901704,
500,0.5568962097,
501.0599976,0.7578779459,
501.9599915,0.6312245727,
503.0299988,0.7232021689,
503.9299927,0.769230783,
505,0.6290864348,
506.0599976,0.5929681659,
506.9599915,0.7050312757,
508.0299988,0.7646019459,
508.9299927,0.6498797536,
510,0.6944183707,
511.0400085,0.692666173,
511.9400024,0.7836250663,
512.9799805,0.6729604006,
514.0200195,0.6621469259,
515.0700073,0.7197088599,
515.9699707,0.7745065689,
517.0100098,0.7329918742,
518.0499878,0.8329640627,
518.9500122,0.8335087895,
520,0.7762947679,
521.039978,0.8519585729,
521.9400024,0.8247227073,
522.9799805,0.8684011102,
524.0200195,0.9338127375,
525.0700073,0.8285565972,
525.9699707,0.9519914985,
527.0100098,0.9003728628,
528.0499878,0.9058882594,
528.9500122,0.8920112252,
530,0.8535093665,
531.0200195,0.8647798896,
532.0499878,0.9026911855,
532.9400024,0.8697142005,
533.9699707,0.9063755274,
535,0.8650581837,
536.0200195,0.9057901502,
537.0499878,1.055811882,
537.9400024,0.9402371645,
538.9699707,1.129729152,
540,1.084288359,
541.039978,1.064161897,
541.9400024,1.074901819,
542.9799805,1.11530292,
544.0200195,1.124084115,
545.0700073,1.14928627,
545.9699707,1.086024523,
547.0100098,1.188323498,
548.0499878,1.311752081,
548.9500122,1.223735571,
550,1.208378077,
551.0200195,1.382002592,
552.0499878,1.48156929,
552.9400024,1.545363069,
553.9699707,1.69668293,
555,1.563053966,
556.0200195,1.758063436,
557.0499878,1.647329807,
557.9400024,1.911157966,
558.9699707,1.8309201,
560,2.073394537,
561.039978,1.923290372,
561.9400024,1.994429827,
562.9799805,2.280441284,
564.0200195,2.440121651,
565.0700073,2.565603733,
565.9699707,2.664636374,
567.0100098,2.7497859,
568.0499878,2.728855371,
568.9500122,3.046597958,
570,2.613477945,
571.0200195,3.282769442,
572.0499878,3.340808153,
572.9400024,3.38696003,
573.9699707,3.412402391,
575,3.141443491,
576.0200195,3.334213734,
577.0499878,3.475898266,
577.9400024,3.706558228,
578.9699707,4.157006741,
580,4.097844124,
581.0200195,3.964011908,
582.0499878,4.175222397,
582.9400024,4.080686092,
583.9699707,4.375431061,
585,4.670238495,
586.0200195,4.399672985,
587.0499878,4.634614468,
587.9400024,4.753190517,
588.9699707,4.635613918,
590,4.86965847,
591.0200195,5.011778831,
592.0499878,5.213931084,
592.9400024,5.013436794,
593.9699707,5.55250597,
595,5.809434414,
596.0200195,5.528436184,
597.0499878,5.651003361,
597.9400024,5.656175137,
598.9699707,6.116648674,
600,5.990623474,
601.0100098,6.519949436,
602.0200195,7.225463867,
603.039978,7.200189114,
604.0499878,7.362036705,
605.0700073,7.43718195,
605.9400024,7.880313396,
606.9500122,8.492324829,
607.9699707,8.189208984,
608.9799805,8.585240364,
610,9.444335938,
611.0200195,9.483272552,
612.0499878,9.435287476,
612.9400024,10.29562378,
613.9699707,10.67691708,
615,10.98585892,
616.0200195,11.5113802,
617.0499878,12.09338665,
617.9400024,12.60348415,
618.9699707,12.69870281,
620,13.23369122,
621.0100098,13.84265995,
622.0200195,14.05532932,
623.039978,14.80988979,
624.0499878,14.9566803,
625.0700073,15.6742487,
625.9400024,15.3294735,
626.9500122,15.96345043,
627.9699707,15.50449657,
628.9799805,15.75348186,
630,16.18094063,
631.0100098,16.09508896,
632.0200195,16.3361969,
633.039978,16.2565918,
634.0499878,16.77820396,
635.0700073,15.61305141,
635.9400024,16.46509743,
636.9500122,15.47758961,
637.9699707,15.31073856,
638.9799805,16.24692345,
640,16.07918167,
641.0100098,15.61358261,
642.0200195,15.99180698,
643.039978,15.75141811,
644.0499878,15.20188046,
645.0700073,14.93389893,
645.9400024,15.81027699,
646.9500122,15.58008766,
647.9699707,14.4464283,
648.9799805,15.54001617,
650,15.10634041,
651,15.68020344,
652,14.69417,
653,14.96447468,
654,15.63444328,
655,15.33166409,
656,15.95437145,
657,16.76784134,
658,17.32629395,
659,17.37464333,
660,17.88119507,
661,18.26612282,
662,18.68350792,
663,19.11243248,
664,20.49144745,
665,21.56001091,
666,24.36260605,
667,24.22568321,
668,25.01699448,
669,25.98449898,
670,27.15823174,
671.0100098,27.186203,
672.0200195,28.47691536,
673.039978,30.11728477,
674.0499878,31.51720047,
675.0700073,32.07165527,
675.9400024,34.30066299,
676.9500122,35.4355545,
677.9699707,36.22963333,
678.9799805,36.49215698,
680,38.85323334,
681,38.71191788,
682,38.49786377,
683,39.84342194,
684,40.51470566,
685,41.17707443,
686,42.4606781,
687,43.25296021,
688,42.89202881,
689,43.31017303,
690,43.92966843,
690.9799805,44.38415146,
691.9699707,44.30147934,
692.9500122,44.2383194,
693.9400024,44.11465836,
695.0700073,45.17885208,
696.0499878,45.37943268,
697.039978,44.92614746,
698.0200195,42.61706924,
699.0100098,41.68319321,
700,40.52704239,
701,38.48657227,
702,38.22955704,
703,36.57630157,
704,37.18438339,
705,35.14022827,
706,34.10359573,
707,33.03824615,
708,31.34600067,
709,29.43898201,
710,29.29779243,
710.9799805,27.04937363,
711.9699707,26.98336792,
712.9500122,23.96578026,
713.9400024,22.30259132,
715.0700073,19.95263481,
716.0499878,19.44377708,
717.039978,18.72585487,
718.0200195,17.59704781,
719.0100098,15.51121521,
720,13.95105934,
720.9799805,12.02531624,
721.9699707,11.70160866,
722.9500122,11.5754528,
723.9400024,9.649270058,
725.0700073,9.873180389,
726.0499878,8.736268997,
727.039978,7.841174603,
728.0200195,5.696310043,
729.0100098,6.386554718,
730,5.167302132,
730.9799805,4.413673878,
731.9699707,4.54117012,
732.9500122,4.226468086,
733.9400024,3.928375483,
735.0700073,3.5814538,
736.0499878,3.826402187,
737.039978,2.856840611,
738.0200195,2.799913645,
739.0100098,1.654350877,
740,2.412254333,
740.9699707,0.9391875863,
741.9400024,1.928640246,
743.0499878,0.8556411266,
744.0200195,1.385739565,
745,2.428735733,
745.9699707,0.2567394078,
746.9400024,0,
748.0499878,0.1306506395,
749.0200195,0.1328373998,
750,-0.6688068509,
750.9699707,1.603849173,
751.9400024,0.814000845,
753.0499878,0.8185539246,
754.0200195,-0.277816385,
755,1.550387621,
755.9699707,-0.5776173472,
756.9400024,2.032520294,
758.0499878,0.5906674862,
759.0200195,0,
760,1.312144637,
760.9699707,0.430539608,
761.9400024,0,
763.0499878,-0.6803646684,
764.0200195,1.088435411,
765,1.396648049,
765.9699707,1.031231642,
766.9400024,1.558603525,
768.0499878,-0.3495892584,
769.0200195,0.8779631257,
770,-0.181488201,

Sample 4,
Sample 4
Collection Time: 5/05/2023 2:40:18 PM
Operator Name  :
Scan Software Version: 1.2(147)
Parameter List :
Instrument                        Cary Eclipse
Instrument Serial Number          test
Data mode                         Fluorescence
Scan mode                         Excitation
X Mode                            Wavelength (nm)
Start (nm)                        220.00
Stop (nm)                         770.00
Em. Wavelength (nm)               780.00
Ex. Slit (nm)                     5
Em. Slit (nm)                     5
Scan rate (nm/min)                600.00
Data interval (nm)                1.0000
Averaging Time (s)                0.1000
Excitation filter                 Auto
Emission filter                   Open
PMT voltage (V)                   Medium
Corrected spectra                 OFF
Method Log     :
Method Name    : Default
Date/Time stamp: 5/05/2023 1:46:27 PM
Method Modifications:
User Delta Stop Changed: 5/05/2023 2:37:38 PM, Old: 450.00, New: 690.00
User Delta Increment Changed: 5/05/2023 2:37:38 PM, Old:  10.00, New:   0.15
Excitation Wavelength Changed: 5/05/2023 2:37:38 PM, Old: 350.00, New: 690.00
Emission Wavelength Changed: 5/05/2023 2:37:38 PM, Old: 400.00, New: 700.00
Stop Wavelength Changed: 5/05/2023 2:37:38 PM, Old: 600.00, New: 850.00
Excitation Wavelength Changed: 5/05/2023 2:38:01 PM, Old: 690.00, New: 630.00
Emission Wavelength Changed: 5/05/2023 2:38:01 PM, Old: 700.00, New: 640.00
Overlayed Graphs Changed: 5/05/2023 2:38:31 PM, Old:OFF, New:ON
Scan mode: Changed: 5/05/2023 2:40:13 PM, Old:Emission, New:Excitation
User Delta Stop Changed: 5/05/2023 2:40:13 PM, Old: 690.00, New: 780.00
Excitation Wavelength Changed: 5/05/2023 2:40:13 PM, Old: 630.00, New: 220.00
Emission Wavelength Changed: 5/05/2023 2:40:13 PM, Old: 640.00, New: 780.00
Stop Wavelength Changed: 5/05/2023 2:40:13 PM, Old: 850.00, New: 770.00
End Method Modifications

