Sample 13,,
Wavelength (nm),Intensity (a.u.),
220,10.96836758,
220.9299927,8.926701546,
222.0299988,6.686332226,
222.9600067,4.893172264,
224.0599976,3.603656054,
225,3.707243443,
225.9299927,2.590280056,
227.0299988,2.131407022,
227.9600067,1.748981118,
229.0599976,1.855570078,
230,1.979680777,
230.9299927,1.71549356,
232.0299988,1.776553631,
232.9600067,1.78956306,
234.0599976,2.377969503,
235,2.080346107,
235.9299927,2.645673513,
237.0299988,3.132801533,
237.9600067,2.671402693,
239.0599976,2.751555681,
240,2.720357895,
240.9299927,3.066426754,
242.0299988,3.203839064,
242.9600067,3.293470383,
244.0599976,3.776651621,
245,4.311071873,
245.9299927,4.546903133,
247.0299988,4.767549515,
247.9600067,5.030472755,
249.0599976,6.385781765,
250,8.65195179,
250.9299927,10.98128223,
252.0299988,14.50778484,
252.9600067,17.4328022,
254.0599976,18.13707924,
255,16.52790451,
255.9299927,13.84085846,
257.0299988,10.09068871,
257.9599915,9.161608696,
259.0599976,8.40768528,
260,7.659279823,
261.0700073,7.648088455,
262,7.487617016,
263.0700073,7.687113762,
264,7.995603561,
265.0700073,8.642003059,
266,7.671525002,
267.0700073,8.10610199,
268,9.301170349,
269.0700073,20.37296104,
270,53.92207336,
270.9299927,111.4927826,
272.0299988,206.2490692,
272.9599915,286.2142029,
274.0599976,341.8924255,
275,348.2581787,
275.9299927,299.7594299,
277.0299988,189.3370819,
277.9599915,106.9146805,
279.0599976,42.9314537,
280,10.99982071,
280.9299927,3.128818512,
282.0299988,1.284057379,
282.9599915,1.303238034,
284.0599976,0.9863189459,
285,1.036172628,
285.9299927,0.914586544,
287.0299988,0.9077811837,
287.9599915,0.8722278476,
289.0599976,0.8543860912,
290,0.9405510426,
291.0700073,0.7039957047,
292,0.8315960169,
293.0700073,0.8269476295,
294,0.65962255,
295.0700073,0.6178013682,
296,0.7127076983,
297.0700073,0.6603914499,
298,0.6073464155,
299.0700073,0.6931909323,
300,0.6330553889,
300.9299927,0.7891911268,
302.0299988,0.7487761378,
302.9599915,0.6826363206,
304.0599976,0.6661860347,
305,0.6145759225,
305.9299927,0.7280653715,
307.0299988,0.6787286401,
307.9599915,0.6193881035,
309.0599976,0.6600130796,
310,0.5944626927,
311.0700073,0.7669404745,
312,0.5843914151,
313.0700073,0.8030933142,
314,0.6500509977,
315.0700073,0.667468369,
316,0.5807183981,
317.0700073,0.8320721388,
318,0.5307759643,
319.0700073,0.6898189187,
320,0.7217428088,
321.0700073,0.6467015743,
322,0.6069409251,
323.0700073,0.6533483267,
324,0.6615428329,
325.0700073,0.5166763663,
326,0.666151166,
327.0700073,0.5482902527,
328,0.6984866261,
329.0700073,0.5552229881,
330,0.4918355346,
330.9299927,0.5330438614,
332.0299988,0.4789506197,
332.9599915,0.6165808439,
334.0599976,0.5834267735,
335,0.5641630888,
335.9299927,0.3672588766,
337.0299988,0.4746084511,
337.9599915,0.47392115,
339.0599976,0.5954603553,
340,0.5662775636,
341.0700073,0.5735113025,
342,0.5372293591,
343.0700073,0.5114241838,
344,0.6438589692,
345.0700073,0.6148947477,
346,0.6001482606,
347.0700073,0.6791223288,
348,0.637755096,
349.0700073,0.3985845447,
350,0.532877028,
351.0700073,0.3464398384,
352,0.3287475407,
353.0700073,0.3336851299,
354,0.2617410421,
355.0700073,0.3647854924,
356,0.3369770646,
357.0700073,0.3101851642,
358,0.2356951386,
359.0700073,0.3068722785,
360,0.3409516215,
361.0700073,0.2449417114,
362,0.1890075952,
363.0700073,0.2734095752,
364,0.2302074432,
365.0700073,0.3031690717,
366,0.2920764089,
367.0700073,0.33306548,
368,0.2564977407,
369.0700073,0.1862825304,
370,0.2513122261,
371.0599976,0.1583064348,
371.9599915,0.194032833,
373.0299988,0.1854062825,
373.9299927,0.2479684204,
375,0.1862722933,
376.0599976,0.1480652243,
376.9599915,0.103990823,
378.0299988,0.2222384214,
378.9299927,0.1904943287,
380,0.1857769191,
381.0700073,0.222595647,
382,0.2237747014,
383.0700073,0.1476222426,
384,0.1571659446,
385.0700073,0.159459874,
386,0.1660213917,
387.0700073,0.1606941968,
388,0.1637455076,
389.0700073,0.2183848321,
390,0.1486432105,
391.0700073,0.1552283764,
392,0.09625012428,
393.0700073,0.1674369276,
394,0.1485386491,
395.0700073,0.1248161122,
396,0.1792751998,
397.0700073,0.1289902776,
398,0.2322575599,
399.0700073,0.1734692007,
400,0.2030726969,
401.0599976,0.219792515,
401.9599915,0.2214346081,
403.0299988,0.2715243995,
403.9299927,0.2170386761,
405,0.1899995059,
406.0599976,0.2238597125,
406.9599915,0.1572740376,
408.0299988,0.1843414009,
408.9299927,0.09765984118,
410,0.1352801621,
411.0700073,0.1679172665,
412,0.1651997417,
413.0700073,0.1242618337,
414,0.178445369,
415.0700073,0.1575756073,
416,0.1371520907,
417.0700073,0.106207177,
418,0.1242992729,
419.0700073,0.09771431983,
420,0.1082306877,
421.0599976,0.08373016119,
421.9599915,0.09982677549,
423.0299988,0.1058308333,
423.9299927,0.1328884661,
425,0.1175176948,
426.0599976,0.1075756624,
426.9599915,0.1076131761,
428.0299988,0.1089387536,
428.9299927,0.08070041239,
430,0.1268459707,
431.0599976,0.1293744147,
431.9599915,0.1169424728,
433.0299988,0.1361836493,
433.9299927,0.1280287206,
435,0.1111897305,
436.0599976,0.1180052534,
436.9599915,0.1084681526,
438.0299988,0.1208311319,
438.9299927,0.1258015037,
440,0.1367060989,
441.0599976,0.09871545434,
441.9599915,0.1209755242,
443.0299988,0.1122554094,
443.9299927,0.1285578012,
445,0.1084330678,
446.0599976,0.1265572906,
446.9599915,0.09145056456,
448.0299988,0.1040208936,
448.9299927,0.1172257736,
450,0.09097345173,
451.0599976,0.1221408024,
451.9599915,0.09031989425,
453.0299988,0.1446005106,
453.9299927,0.1455556899,
455,0.1493926048,
456.0599976,0.15275684,
456.9599915,0.1177111864,
458.0299988,0.1870485544,
458.9299927,0.1720175147,
460,0.2020636499,
461.0599976,0.2807982266,
461.9599915,0.3360276818,
463.0299988,0.3964993954,
463.9299927,0.41381374,
465,0.4278475344,
466.0599976,0.4968754947,
466.9599915,0.4363611042,
468.0299988,0.503433466,
468.9299927,0.5769346356,
470,0.8021162748,
471.0400085,1.091166019,
471.9400024,1.394038916,
472.980011,1.810634017,
474.019989,2.001149416,
475.0700073,1.797725916,
475.9700012,1.512057662,
477.0100098,1.212427855,
478.0499878,0.7426378727,
478.9500122,0.501021564,
480,0.3647063673,
481.0599976,0.2613248229,
481.9599915,0.2354876399,
483.0299988,0.1740099043,
483.9299927,0.188610062,
485,0.1375500411,
486.0599976,0.09435221553,
486.9599915,0.1357464641,
488.0299988,0.1241200045,
488.9299927,0.1362661421,
490,0.1724177897,
491.0400085,0.1363688707,
491.9400024,0.1545223296,
492.980011,0.1257797927,
494.019989,0.169032678,
495.0700073,0.2163688987,
495.9700012,0.175739333,
497.0100098,0.1923121214,
498.0499878,0.222076416,
498.9500122,0.2403352708,
500,0.2372807264,
501.0599976,0.25052917,
501.9599915,0.2390549034,
503.0299988,0.2656419277,
503.9299927,0.2943564653,
505,0.2563575804,
506.0599976,0.3880058825,
506.9599915,0.3172677457,
508.0299988,0.4683308601,
508.9299927,0.4299118817,
510,0.5535948873,
511.0400085,0.4118670225,
511.9400024,0.4288598299,
512.9799805,0.4158745408,
514.0200195,0.3993976712,
515.0700073,0.3675469756,
515.9699707,0.4174721539,
517.0100098,0.3698555231,
518.0499878,0.4522530138,
518.9500122,0.3929076493,
520,0.4450708628,
521.039978,0.35748142,
521.9400024,0.5909912586,
522.9799805,0.5540065765,
524.0200195,0.4745565355,
525.0700073,0.5085429549,
525.9699707,0.4025402963,
527.0100098,0.4140343666,
528.0499878,0.3651942611,
528.9500122,0.3611145616,
530,0.2870367765,
531.0200195,0.378768295,
532.0499878,0.3969739079,
532.9400024,0.3007853627,
533.9699707,0.340939045,
535,0.4523683488,
536.0200195,0.4564091265,
537.0499878,0.5826539993,
537.9400024,0.514375329,
538.9699707,0.5682244897,
540,0.5907128453,
541.039978,0.6988109946,
541.9400024,0.8160783648,

Sample 13,
Sample 13
Collection Time: 27/06/2023 5:44:26 PM
Operator Name  :
Scan Software Version: 1.2(147)
Parameter List :
Instrument                        Cary Eclipse
Instrument Serial Number          test
Data mode                         Fluorescence
Scan mode                         Excitation
X Mode                            Wavelength (nm)
Start (nm)                        220.00
Stop (nm)                         542.00
Em. Wavelength (nm)               552.00
Ex. Slit (nm)                     5
Em. Slit (nm)                     5
Scan rate (nm/min)                120.00
Data interval (nm)                1.0000
Averaging Time (s)                0.5000
Excitation filter                 Auto
Emission filter                   Open
PMT voltage (V)                   High
Corrected spectra                 OFF
Method Log     :
Method Name    : Default
Date/Time stamp: 27/06/2023 4:28:13 PM
Method Modifications:
Overlayed Graphs Changed: 27/06/2023 4:58:13 PM, Old:OFF, New:ON
PMT Volts Changed: 27/06/2023 4:58:13 PM, Old:600, New:800
Emission PMT (V): Changed: 27/06/2023 4:58:13 PM, Old: 600, New: 800
Excitation Wavelength Changed: 27/06/2023 4:58:13 PM, Old: 350.00, New: 375.00
Emission Wavelength Changed: 27/06/2023 4:58:13 PM, Old: 400.00, New: 385.00
Scan Control Changed: 27/06/2023 4:58:47 PM, Old:Medium, New:Slow
Ave. time (s): Changed: 27/06/2023 4:58:47 PM, Old:0.10000, New:0.50000
Scan Control Changed: 27/06/2023 4:59:39 PM, Old:Slow, New:Manual
Ave. time (s): Changed: 27/06/2023 4:59:39 PM, Old:0.50000, New:0.20000
Stop Wavelength Changed: 27/06/2023 4:59:46 PM, Old: 600.00, New: 650.00
Ave. time (s): Changed: 27/06/2023 5:00:03 PM, Old:0.20000, New:1.00000
Scan mode: Changed: 27/06/2023 5:12:38 PM, Old:Emission, New:Excitation
User Delta Stop Changed: 27/06/2023 5:12:38 PM, Old: 450.00, New: 465.00
User Delta Increment Changed: 27/06/2023 5:12:38 PM, Old:  10.00, New:   0.15
Excitation Wavelength Changed: 27/06/2023 5:12:38 PM, Old: 375.00, New: 220.00
Emission Wavelength Changed: 27/06/2023 5:12:38 PM, Old: 385.00, New: 465.00
Stop Wavelength Changed: 27/06/2023 5:12:38 PM, Old: 650.00, New: 455.00
Scan mode: Changed: 27/06/2023 5:24:45 PM, Old:Excitation, New:Emission
Excitation Wavelength Changed: 27/06/2023 5:24:45 PM, Old: 220.00, New: 375.00
Emission Wavelength Changed: 27/06/2023 5:24:45 PM, Old: 465.00, New: 385.00
Stop Wavelength Changed: 27/06/2023 5:24:45 PM, Old: 455.00, New: 650.00
Emission Wavelength Changed: 27/06/2023 5:28:51 PM, Old: 385.00, New: 450.00
Stop Wavelength Changed: 27/06/2023 5:28:51 PM, Old: 650.00, New: 750.00
Ave. time (s): Changed: 27/06/2023 5:34:28 PM, Old:1.00000, New:0.20000
Ave. time (s): Changed: 27/06/2023 5:34:51 PM, Old:0.20000, New:0.50000
Scan mode: Changed: 27/06/2023 5:37:57 PM, Old:Emission, New:Excitation
User Delta Stop Changed: 27/06/2023 5:37:57 PM, Old: 465.00, New: 552.00
Ave. time (s): Changed: 27/06/2023 5:37:57 PM, Old:0.50000, New:1.00000
Excitation Wavelength Changed: 27/06/2023 5:37:57 PM, Old: 375.00, New: 220.00
Emission Wavelength Changed: 27/06/2023 5:37:57 PM, Old: 450.00, New: 552.00
Stop Wavelength Changed: 27/06/2023 5:37:57 PM, Old: 750.00, New: 542.00
Ave. time (s): Changed: 27/06/2023 5:44:24 PM, Old:1.00000, New:0.50000
End Method Modifications

